File: N132962/Quantification/20 keV/Glass Mount IIIB/GM IIIB K366[0][4].msa
#FORMAT      : EMSA/MAS Spectral Data File
#VERSION     : 1.0
#TITLE       : GM IIIB K366[0][all]
#DATE        : 10-SEP-2025
#TIME        : 18:23
#OWNER       : Unknown
#NPOINTS     : 4096
#NCOLUMNS    : 1
#XUNITS      : eV
#YUNITS      : counts
#DATATYPE    : Y
#XPERCHAN    : 9.99778
#OFFSET      : 1.69135
#BEAMKV      : 20
#SIGNALTYPE  : EDS
#ELEVANGLE   : 35
#AZIMANGLE   : 0
#LIVETIME    : 240.32
#REALTIME    : 267.751
#PROBECUR    : 1.22475
#TAUWIND     : 0
#TDEADLYR    : 0
#TACTLYR     : 0.045
#TALWIND     : 0.025
#CHOFFSET    : 0.0
#XLABEL      : Energy (eV)
#YLABEL      : Counts
#XPOSITION   : 8.46941
#YPOSITION   : 3.0126
#ZPOSITION   : 34.00159
#EDSDET      : SD
##SPECIMEN   : GM IIIB K366[0][all]
##D2STDCMP   : K366,(O:20.43),(Si:13.45),(Pb:66.12)
##DET_HASH   : 12273538-fd48-a23f-0a19-f1e6fa85caef
##CALIB_HASH : 6abaa72c-aa41-8738-0be9-f592914732f3
##WORKING    : 15.0 mm
##DET_NAME   : EDAX All
##DET_MODE   : MediumLE
#SPECTRUM    :
25,
551,
11951,
7349,
27851,
8531,
7214,
7769,
8491,
9552,
10342,
11322,
52655,
40186,
9205,
9539,
20236,
159647,
26930,
12702,
5609,
6247,
7701,
5852,
5323,
5608,
5388,
5326,
5138,
5533,
5298,
5066,
5626,
5062,
5271,
5023,
4843,
4803,
4795,
4609,
4577,
4383,
4153,
4305,
4035,
4223,
4314,
3881,
3731,
3664,
3742,
3669,
3459,
3572,
3394,
3189,
3128,
3034,
3044,
2969,
2808,
2786,
2708,
2678,
2478,
2763,
2953,
2440,
2195,
2254,
2247,
2193,
2213,
2062,
3128,
12315,
6651,
1917,
1796,
1695,
1639,
1644,
1524,
1530,
1377,
1429,
1437,
1587,
1461,
2022,
5635,
2247,
1280,
1318,
973,
918,
893,
855,
800,
703,
744,
678,
680,
701,
663,
918,
764,
580,
669,
542,
439,
409,
400,
376,
419,
365,
322,
319,
326,
307,
277,
241,
261,
229,
185,
173,
183,
172,
153,
138,
134,
120,
117,
95,
78,
85,
49,
55,
41,
34,
28,
22,
13,
2,
4,
9,
4,
4,
5,
2,
6,
3,
1,
0,
3,
4,
5,
0,
2,
0,
5,
1,
1,
0,
1,
4,
2,
0,
1,
0,
1,
0,
1,
0,
2,
0,
1,
1,
0,
1,
3,
1,
1,
1,
0,
0,
0,
1,
0,
0,
0,
0,
1,
0,
0,
0,
1,
0,
1,
0,
0,
0,
0,
1,
0,
1,
0,
0,
1,
0,
1,
0,
0,
0,
0,
1,
0,
0,
0,
0,
0,
0,
0,
0,
1,
0,
0,
0,
1,
0,
0,
1,
0,
0,
0,
0,
0,
0,
0,
0,
0,
0,
0,
0,
0,
0,
0,
0,
0,
0,
0,
0,
0,
0,
0,
0,
0,
0,
0,
0,
0,
0,
0,
0,
0,
0,
0,
0,
0,
0,
0,
0,
0,
0,
0,
0,
0,
0,
0,
0,
0,
0,
0,
0,
0,
0,
0,
0,
0,
0,
0,
0,
0,
0,
#ENDOFDATA   :