File: N132962/Quantification/20 keV/Glass Mount IIIB/GM IIIB K978[1][4].msa
#FORMAT      : EMSA/MAS Spectral Data File
#VERSION     : 1.0
#TITLE       : GM IIIB K978[1][all]
#DATE        : 10-SEP-2025
#TIME        : 16:33
#OWNER       : Unknown
#NPOINTS     : 4096
#NCOLUMNS    : 1
#XUNITS      : eV
#YUNITS      : counts
#DATATYPE    : Y
#XPERCHAN    : 9.99778
#OFFSET      : 1.69135
#BEAMKV      : 20
#SIGNALTYPE  : EDS
#ELEVANGLE   : 35
#AZIMANGLE   : 0
#LIVETIME    : 240.135
#REALTIME    : 259.758
#PROBECUR    : 1.22413
#TAUWIND     : 0
#TDEADLYR    : 0
#TACTLYR     : 0.045
#TALWIND     : 0.025
#CHOFFSET    : 0.0
#XLABEL      : Energy (eV)
#YLABEL      : Counts
#XPOSITION   : 0.28519
#YPOSITION   : 11.38765
#ZPOSITION   : 34.06144
#EDSDET      : SD
##SPECIMEN   : GM IIIB K978[1][all]
##D2STDCMP   : K978,(O:39.39),(Mg:1.36),(Al:8.92),(Si:21.02),(K:1.87),(Ca:6.75),(Ti:0.67),(Rb:2.06),(Sr:10.05),(Cs:2.12),(La:1.92),(Eu:1.94),(Gd:1.95)
##DET_HASH   : 12273538-fd48-a23f-0a19-f1e6fa85caef
##CALIB_HASH : 6abaa72c-aa41-8738-0be9-f592914732f3
##WORKING    : 15.0 mm
##DET_NAME   : EDAX All
##DET_MODE   : MediumLE
#SPECTRUM    :
22,
234,
6729,
6586,
46495,
3520,
4963,
5135,
7837,
17827,
11876,
35992,
70305,
71547,
6200,
3504,
3961,
3544,
3485,
3485,
3571,
3602,
3447,
4804,
9848,
3932,
23384,
9185,
3716,
5812,
3542,
4395,
5208,
6170,
2932,
3031,
3503,
2555,
2557,
2292,
2052,
2440,
3518,
3365,
2087,
1746,
2603,
1950,
2370,
1965,
1561,
1638,
1382,
1440,
1378,
1266,
1251,
1166,
1149,
1109,
1040,
1057,
984,
952,
903,
911,
888,
849,
798,
773,
805,
760,
707,
710,
686,
609,
664,
591,
587,
589,
561,
531,
509,
501,
452,
449,
403,
410,
389,
360,
353,
361,
340,
301,
323,
402,
406,
257,
235,
258,
364,
638,
270,
214,
198,
175,
157,
175,
146,
130,
148,
126,
125,
189,
109,
121,
108,
81,
90,
74,
75,
72,
51,
67,
53,
47,
51,
31,
49,
44,
22,
30,
33,
24,
26,
20,
18,
14,
8,
4,
5,
6,
2,
0,
0,
0,
2,
0,
0,
0,
1,
0,
0,
0,
0,
1,
1,
0,
0,
0,
0,
0,
0,
1,
0,
0,
0,
0,
0,
1,
0,
0,
0,
0,
0,
0,
0,
0,
0,
0,
0,
0,
0,
0,
0,
0,
0,
0,
0,
0,
0,
0,
0,
0,
0,
0,
0,
0,
0,
0,
0,
0,
0,
0,
0,
0,
0,
0,
0,
0,
0,
0,
0,
0,
0,
0,
0,
0,
0,
0,
0,
0,
0,
0,
0,
0,
0,
0,
0,
0,
0,
0,
0,
0,
0,
0,
0,
0,
0,
0,
0,
0,
0,
0,
0,
0,
0,
0,
0,
0,
0,
0,
0,
0,
0,
0,
0,
0,
0,
0,
0,
0,
0,
0,
0,
0,
0,
0,
0,
0,
0,
0,
0,
0,
0,
0,
0,
0,
0,
0,
0,
0,
0,
0,
0,
0,
0,
0,
0,
0,
0,
0,
0,
0,
#ENDOFDATA   :