File: N132962/Quantification/20 keV/Glass Mount IIIB/GM IIIB K968[4][4].msa
#FORMAT      : EMSA/MAS Spectral Data File
#VERSION     : 1.0
#TITLE       : GM IIIB K968[4][all]
#DATE        : 10-SEP-2025
#TIME        : 16:25
#OWNER       : Unknown
#NPOINTS     : 4096
#NCOLUMNS    : 1
#XUNITS      : eV
#YUNITS      : counts
#DATATYPE    : Y
#XPERCHAN    : 9.99778
#OFFSET      : 1.69135
#BEAMKV      : 20
#SIGNALTYPE  : EDS
#ELEVANGLE   : 35
#AZIMANGLE   : 0
#LIVETIME    : 240.25
#REALTIME    : 266.6013
#PROBECUR    : 1.22413
#TAUWIND     : 0
#TDEADLYR    : 0
#TACTLYR     : 0.045
#TALWIND     : 0.025
#CHOFFSET    : 0.0
#XLABEL      : Energy (eV)
#YLABEL      : Counts
#XPOSITION   : 7.14538
#YPOSITION   : 12.24511
#ZPOSITION   : 34.06144
#EDSDET      : SD
##SPECIMEN   : GM IIIB K968[4][all]
##D2STDCMP   : K968,(O:16.62),(Mg:0.08),(P:0.2),(Ti:0.16),(Cr:0.17),(Ni:0.19),(Ge:26.27),(Zr:0.3),(Ba:0.45),(Eu:0.49),(Pb:54.91),(Th:0.08),(U:0.09)
##DET_HASH   : 12273538-fd48-a23f-0a19-f1e6fa85caef
##CALIB_HASH : 6abaa72c-aa41-8738-0be9-f592914732f3
##WORKING    : 15.0 mm
##DET_NAME   : EDAX All
##DET_MODE   : MediumLE
#SPECTRUM    :
37,
553,
11553,
7508,
24820,
8817,
8656,
10265,
25983,
37432,
7790,
8178,
9172,
16889,
9671,
10044,
18055,
129396,
23119,
12282,
6068,
6505,
7985,
6202,
5908,
6058,
5870,
5725,
5484,
5337,
5422,
5387,
7353,
5370,
5406,
5502,
5113,
5046,
4919,
5110,
4717,
4686,
4909,
4365,
4285,
4422,
4829,
4079,
4069,
3906,
3862,
3601,
3559,
4133,
3568,
3321,
3294,
3104,
3076,
3131,
2966,
2785,
2757,
2779,
2714,
2877,
2947,
2474,
2422,
2651,
13681,
13604,
2359,
2173,
3152,
10813,
6102,
2110,
3842,
2980,
1698,
1544,
1507,
1550,
1418,
1334,
1396,
1502,
1413,
1914,
4740,
2191,
1192,
1240,
1033,
936,
895,
844,
784,
826,
734,
686,
731,
696,
657,
890,
750,
597,
615,
535,
468,
449,
431,
423,
386,
374,
358,
290,
296,
319,
287,
262,
261,
247,
199,
189,
184,
169,
153,
150,
135,
135,
95,
111,
81,
95,
76,
58,
37,
34,
26,
25,
12,
8,
2,
10,
3,
7,
4,
4,
1,
4,
1,
6,
1,
1,
6,
3,
4,
5,
5,
1,
1,
2,
4,
4,
1,
1,
2,
5,
1,
2,
2,
2,
3,
2,
1,
3,
3,
1,
3,
1,
0,
0,
2,
1,
1,
0,
0,
1,
1,
0,
1,
1,
2,
2,
0,
0,
0,
0,
0,
0,
2,
0,
0,
1,
0,
0,
0,
0,
0,
0,
0,
0,
0,
0,
0,
0,
0,
0,
0,
1,
0,
0,
0,
0,
0,
0,
0,
0,
0,
0,
0,
0,
0,
0,
0,
0,
0,
0,
0,
0,
0,
0,
0,
0,
0,
0,
0,
0,
0,
0,
0,
0,
0,
0,
0,
0,
0,
0,
0,
0,
0,
0,
0,
0,
0,
0,
0,
0,
0,
0,
0,
0,
0,
0,
0,
0,
0,
0,
0,
0,
0,
0,
0,
0,
0,
0,
0,
0,
0,
0,
0,
0,
#ENDOFDATA   :