File: N132962/Quantification/20 keV/Glass Mount IIIB/GM IIIB K453[2][4].msa
#FORMAT      : EMSA/MAS Spectral Data File
#VERSION     : 1.0
#TITLE       : GM IIIB K453[2][all]
#DATE        : 10-SEP-2025
#TIME        : 14:13
#OWNER       : Unknown
#NPOINTS     : 4096
#NCOLUMNS    : 1
#XUNITS      : eV
#YUNITS      : counts
#DATATYPE    : Y
#XPERCHAN    : 9.99778
#OFFSET      : 1.69135
#BEAMKV      : 20
#SIGNALTYPE  : EDS
#ELEVANGLE   : 35
#AZIMANGLE   : 0
#LIVETIME    : 240.219
#REALTIME    : 266.664
#PROBECUR    : 1.22574
#TAUWIND     : 0
#TDEADLYR    : 0
#TACTLYR     : 0.045
#TALWIND     : 0.025
#CHOFFSET    : 0.0
#XLABEL      : Energy (eV)
#YLABEL      : Counts
#XPOSITION   : -1.10927
#YPOSITION   : 4.00291
#ZPOSITION   : 34.06144
#EDSDET      : SD
##SPECIMEN   : GM IIIB K453[2][all]
##D2STDCMP   : K453,(O:16.84),(Ge:28.65),(Pb:54.51)
##DET_HASH   : 12273538-fd48-a23f-0a19-f1e6fa85caef
##CALIB_HASH : 6abaa72c-aa41-8738-0be9-f592914732f3
##WORKING    : 15.0 mm
##DET_NAME   : EDAX All
##DET_MODE   : MediumLE
#SPECTRUM    :
30,
540,
11651,
7482,
25104,
8815,
8160,
10649,
27855,
40139,
7671,
8202,
9002,
16806,
8770,
9134,
17823,
127985,
22920,
12405,
5905,
6587,
7871,
6030,
5863,
5935,
5819,
5726,
5495,
5496,
5532,
5311,
5899,
5381,
5387,
5183,
5033,
4917,
4967,
4690,
4576,
4551,
4566,
4302,
4241,
4192,
4437,
4084,
3894,
3830,
3747,
3745,
3578,
3764,
3371,
3268,
3166,
3090,
3104,
2995,
2957,
2787,
2850,
2572,
2624,
2830,
2966,
2411,
2386,
2576,
14783,
14569,
2391,
2146,
3083,
10659,
6027,
2030,
3967,
3162,
1677,
1618,
1497,
1501,
1415,
1425,
1349,
1474,
1388,
1856,
4701,
2095,
1274,
1219,
1000,
926,
888,
825,
802,
802,
739,
717,
723,
664,
660,
828,
762,
572,
576,
553,
446,
415,
383,
415,
388,
385,
356,
320,
306,
276,
269,
252,
236,
234,
213,
202,
173,
161,
164,
155,
118,
120,
99,
79,
81,
67,
67,
43,
45,
42,
27,
24,
14,
5,
3,
5,
12,
6,
2,
8,
7,
6,
5,
4,
4,
2,
6,
4,
2,
3,
5,
6,
1,
1,
3,
5,
4,
0,
1,
1,
0,
1,
4,
1,
2,
1,
0,
2,
0,
1,
2,
1,
1,
2,
2,
0,
2,
1,
0,
0,
0,
1,
1,
0,
1,
1,
1,
0,
0,
0,
0,
0,
0,
0,
0,
1,
0,
1,
1,
0,
0,
1,
0,
0,
0,
1,
0,
0,
0,
0,
0,
0,
0,
0,
0,
0,
1,
0,
0,
0,
0,
0,
0,
0,
0,
0,
0,
0,
0,
0,
0,
0,
0,
0,
0,
0,
0,
0,
0,
0,
0,
0,
0,
0,
0,
0,
0,
0,
0,
0,
0,
0,
0,
0,
0,
0,
0,
0,
0,
0,
0,
0,
0,
0,
0,
0,
0,
0,
0,
0,
0,
0,
0,
0,
0,
0,
0,
0,
0,
0,
0,
0,
0,
0,
#ENDOFDATA   :