File: N132962/Quantification/20 keV/Glass Mount IIIB/GM IIIB K1053[4][4].msa
#FORMAT      : EMSA/MAS Spectral Data File
#VERSION     : 1.0
#TITLE       : GM IIIB K1053[4][all]
#DATE        : 10-SEP-2025
#TIME        : 17:00
#OWNER       : Unknown
#NPOINTS     : 4096
#NCOLUMNS    : 1
#XUNITS      : eV
#YUNITS      : counts
#DATATYPE    : Y
#XPERCHAN    : 9.99778
#OFFSET      : 1.69135
#BEAMKV      : 20
#SIGNALTYPE  : EDS
#ELEVANGLE   : 35
#AZIMANGLE   : 0
#LIVETIME    : 240.292
#REALTIME    : 268.972
#PROBECUR    : 1.22416
#TAUWIND     : 0
#TDEADLYR    : 0
#TACTLYR     : 0.045
#TALWIND     : 0.025
#CHOFFSET    : 0.0
#XLABEL      : Energy (eV)
#YLABEL      : Counts
#XPOSITION   : 3.46514
#YPOSITION   : 13.91132
#ZPOSITION   : 34.06144
#EDSDET      : SD
##SPECIMEN   : GM IIIB K1053[4][all]
##D2STDCMP   : K1053,(O:16.13),(F:0.39),(Si:9.35),(Cl:0.64),(Br:1.09),(I:1.37),(Pb:71.02)
##DET_HASH   : 12273538-fd48-a23f-0a19-f1e6fa85caef
##CALIB_HASH : 6abaa72c-aa41-8738-0be9-f592914732f3
##WORKING    : 15.0 mm
##DET_NAME   : EDAX All
##DET_MODE   : MediumLE
#SPECTRUM    :
13,
734,
13485,
7398,
23099,
10301,
7733,
8330,
8938,
10149,
11451,
14981,
40119,
35914,
10161,
10520,
22556,
178226,
29858,
16126,
6155,
6616,
8215,
6048,
5637,
5902,
5799,
5921,
7521,
5765,
6544,
5750,
6485,
5618,
5759,
5503,
5223,
5148,
4962,
4899,
4849,
4752,
4722,
4602,
4568,
4652,
4682,
4236,
4041,
4084,
4050,
3811,
3838,
4055,
3714,
3525,
3431,
3354,
3274,
3240,
3150,
3033,
3066,
2885,
2828,
3160,
3234,
2745,
2513,
2493,
2436,
2339,
2322,
2249,
3586,
13904,
7496,
2140,
1930,
1867,
1880,
1840,
1715,
1655,
1600,
1789,
1592,
1695,
1591,
2230,
6168,
2652,
1505,
1375,
1051,
1101,
963,
977,
919,
892,
825,
828,
776,
745,
735,
952,
915,
659,
664,
629,
522,
503,
461,
435,
427,
404,
406,
376,
350,
348,
318,
270,
282,
284,
247,
244,
193,
194,
170,
209,
161,
143,
116,
107,
97,
87,
73,
74,
60,
37,
26,
22,
18,
7,
4,
8,
5,
4,
9,
3,
6,
6,
4,
2,
3,
1,
3,
2,
4,
2,
3,
3,
3,
3,
3,
3,
2,
6,
4,
3,
0,
1,
0,
2,
2,
1,
2,
3,
6,
2,
3,
1,
1,
0,
2,
1,
1,
2,
2,
1,
1,
0,
1,
0,
0,
1,
1,
0,
0,
0,
1,
1,
0,
0,
1,
0,
0,
1,
1,
1,
0,
0,
0,
0,
0,
1,
0,
0,
0,
0,
0,
1,
0,
0,
0,
0,
1,
0,
0,
0,
0,
0,
0,
0,
0,
0,
0,
0,
0,
0,
0,
0,
0,
0,
0,
0,
0,
0,
0,
0,
0,
0,
0,
0,
0,
0,
0,
0,
0,
0,
0,
0,
0,
0,
0,
0,
0,
0,
0,
0,
0,
0,
0,
0,
0,
0,
0,
0,
0,
0,
0,
0,
0,
0,
0,
0,
0,
0,
0,
0,
0,
0,
0,
0,
#ENDOFDATA   :