File: N132962/Quantification/20 keV/Glass Mount IIIB/GM IIIB K508[4][4].msa
#FORMAT      : EMSA/MAS Spectral Data File
#VERSION     : 1.0
#TITLE       : GM IIIB K508[4][all]
#DATE        : 11-SEP-2025
#TIME        : 09:34
#OWNER       : Unknown
#NPOINTS     : 4096
#NCOLUMNS    : 1
#XUNITS      : eV
#YUNITS      : counts
#DATATYPE    : Y
#XPERCHAN    : 9.99778
#OFFSET      : 1.69135
#BEAMKV      : 20
#SIGNALTYPE  : EDS
#ELEVANGLE   : 35
#AZIMANGLE   : 0
#LIVETIME    : 240.173
#REALTIME    : 258.776
#PROBECUR    : 1.22303
#TAUWIND     : 0
#TDEADLYR    : 0
#TACTLYR     : 0.045
#TALWIND     : 0.025
#CHOFFSET    : 0.0
#XLABEL      : Energy (eV)
#YLABEL      : Counts
#XPOSITION   : 8.57861
#YPOSITION   : 9.66521
#ZPOSITION   : 34.00161
#EDSDET      : SD
##SPECIMEN   : GM IIIB K508[4][all]
##D2STDCMP   : K508,(B:9.26),(O:41.14),(Si:12.06),(Sr:37.54)
##DET_HASH   : 12273538-fd48-a23f-0a19-f1e6fa85caef
##CALIB_HASH : 6abaa72c-aa41-8738-0be9-f592914732f3
##WORKING    : 15.0 mm
##DET_NAME   : EDAX All
##DET_MODE   : MediumLE
#SPECTRUM    :
25,
714,
9466,
5993,
38993,
6852,
4157,
4993,
5821,
6614,
7042,
11759,
52579,
219428,
13379,
3355,
4144,
3542,
3321,
3577,
3468,
3492,
3408,
3338,
3480,
3542,
3927,
3281,
2904,
2953,
2861,
2813,
2925,
2617,
2452,
2438,
2397,
2339,
2273,
2154,
2098,
2012,
1987,
1841,
1802,
1740,
1851,
1670,
1656,
1585,
1545,
1530,
1504,
1485,
1382,
1303,
1250,
1250,
1189,
1221,
1089,
1108,
1101,
1041,
997,
963,
916,
911,
921,
923,
806,
803,
757,
757,
743,
732,
669,
640,
671,
646,
626,
561,
535,
508,
503,
498,
456,
435,
425,
375,
403,
394,
342,
351,
319,
313,
344,
280,
282,
289,
877,
1839,
523,
204,
205,
196,
164,
170,
161,
149,
153,
132,
223,
335,
171,
141,
75,
99,
94,
81,
66,
77,
71,
57,
60,
40,
50,
42,
30,
38,
33,
38,
25,
26,
19,
16,
16,
13,
5,
9,
7,
5,
5,
1,
1,
0,
0,
0,
1,
1,
0,
0,
1,
1,
0,
0,
0,
0,
0,
1,
0,
0,
0,
0,
0,
0,
1,
0,
0,
1,
0,
0,
0,
0,
1,
0,
0,
0,
0,
0,
0,
1,
0,
0,
1,
0,
0,
0,
0,
2,
0,
0,
0,
0,
0,
0,
0,
0,
0,
0,
1,
0,
0,
0,
0,
0,
0,
0,
0,
0,
0,
0,
0,
0,
0,
0,
0,
0,
0,
0,
0,
0,
0,
0,
0,
0,
0,
0,
0,
0,
0,
0,
0,
0,
0,
0,
0,
0,
0,
0,
0,
0,
0,
0,
0,
0,
0,
0,
0,
0,
0,
0,
0,
0,
0,
0,
0,
0,
0,
0,
0,
0,
0,
0,
0,
0,
0,
0,
0,
0,
0,
0,
0,
0,
0,
0,
0,
0,
0,
0,
0,
0,
0,
0,
0,
0,
0,
0,
0,
0,
0,
0,
0,
0,
#ENDOFDATA   :