File: N132962/Quantification/20 keV/Glass Mount IIIB/GM IIIB K373[0][4].msa
#FORMAT      : EMSA/MAS Spectral Data File
#VERSION     : 1.0
#TITLE       : GM IIIB K373[0][all]
#DATE        : 10-SEP-2025
#TIME        : 18:12
#OWNER       : Unknown
#NPOINTS     : 4096
#NCOLUMNS    : 1
#XUNITS      : eV
#YUNITS      : counts
#DATATYPE    : Y
#XPERCHAN    : 9.99778
#OFFSET      : 1.69135
#BEAMKV      : 20
#SIGNALTYPE  : EDS
#ELEVANGLE   : 35
#AZIMANGLE   : 0
#LIVETIME    : 240.064
#REALTIME    : 260.016
#PROBECUR    : 1.22475
#TAUWIND     : 0
#TDEADLYR    : 0
#TACTLYR     : 0.045
#TALWIND     : 0.025
#CHOFFSET    : 0.0
#XLABEL      : Energy (eV)
#YLABEL      : Counts
#XPOSITION   : 4.39833
#YPOSITION   : 2.3185
#ZPOSITION   : 34.00159
#EDSDET      : SD
##SPECIMEN   : GM IIIB K373[0][all]
##D2STDCMP   : K373,(O:42.34),(Na:10.43),(Si:31.85),(Zn:4.94),(Ba:10.38),(U:0.05)
##DET_HASH   : 12273538-fd48-a23f-0a19-f1e6fa85caef
##CALIB_HASH : 6abaa72c-aa41-8738-0be9-f592914732f3
##WORKING    : 15.0 mm
##DET_NAME   : EDAX All
##DET_MODE   : MediumLE
#SPECTRUM    :
20,
254,
5413,
10256,
82873,
3546,
4417,
24828,
6207,
4285,
4747,
6460,
90763,
42233,
3071,
3114,
4317,
3340,
3247,
3289,
3397,
3068,
3088,
3057,
3055,
3348,
2812,
2702,
3025,
2666,
2460,
3468,
17654,
2489,
5046,
6523,
2535,
4356,
1952,
2337,
2188,
1847,
1794,
1600,
1635,
1482,
1522,
1362,
1356,
1251,
1279,
1121,
1215,
1159,
1135,
1086,
1034,
998,
1019,
922,
922,
2895,
4209,
859,
771,
793,
727,
774,
1184,
956,
650,
645,
643,
589,
611,
537,
538,
538,
495,
488,
486,
455,
416,
412,
381,
393,
333,
341,
337,
335,
297,
320,
299,
233,
252,
264,
241,
214,
211,
177,
193,
160,
150,
142,
153,
144,
120,
137,
120,
127,
112,
110,
95,
100,
85,
77,
69,
71,
65,
63,
52,
56,
50,
37,
45,
36,
37,
25,
36,
26,
17,
22,
9,
14,
17,
7,
14,
7,
5,
3,
10,
3,
2,
1,
1,
0,
0,
0,
0,
1,
0,
1,
0,
0,
0,
0,
0,
1,
0,
0,
0,
1,
1,
0,
1,
0,
0,
0,
0,
0,
0,
0,
0,
0,
0,
0,
0,
0,
0,
0,
0,
0,
0,
0,
0,
0,
0,
0,
0,
0,
0,
0,
0,
0,
0,
0,
0,
0,
0,
0,
0,
0,
0,
0,
0,
0,
0,
0,
0,
0,
0,
0,
0,
0,
0,
0,
0,
0,
0,
0,
0,
0,
0,
0,
0,
0,
0,
0,
0,
0,
0,
0,
0,
0,
0,
0,
0,
0,
0,
0,
0,
0,
0,
0,
0,
0,
0,
0,
0,
0,
0,
0,
0,
0,
0,
0,
0,
0,
0,
0,
0,
0,
0,
0,
0,
0,
0,
0,
0,
0,
0,
0,
0,
0,
0,
0,
0,
0,
0,
0,
0,
0,
0,
0,
0,
0,
0,
0,
0,
0,
0,
0,
0,
0,
#ENDOFDATA   :