File: N132962/Quantification/20 keV/Glass Mount IIIB/GM IIIB K961[4][4].msa
#FORMAT      : EMSA/MAS Spectral Data File
#VERSION     : 1.0
#TITLE       : GM IIIB K961[4][all]
#DATE        : 11-SEP-2025
#TIME        : 09:58
#OWNER       : Unknown
#NPOINTS     : 4096
#NCOLUMNS    : 1
#XUNITS      : eV
#YUNITS      : counts
#DATATYPE    : Y
#XPERCHAN    : 9.99778
#OFFSET      : 1.69135
#BEAMKV      : 20
#SIGNALTYPE  : EDS
#ELEVANGLE   : 35
#AZIMANGLE   : 0
#LIVETIME    : 240.1835
#REALTIME    : 259.234
#PROBECUR    : 1.22337
#TAUWIND     : 0
#TDEADLYR    : 0
#TACTLYR     : 0.045
#TALWIND     : 0.025
#CHOFFSET    : 0.0
#XLABEL      : Energy (eV)
#YLABEL      : Counts
#XPOSITION   : 11.35184
#YPOSITION   : 12.05042
#ZPOSITION   : 34.00161
#EDSDET      : SD
##SPECIMEN   : GM IIIB K961[4][all]
##D2STDCMP   : K961,(O:46.98),(Na:2.97),(Mg:3.02),(Al:5.82),(Si:29.92),(P:0.22),(K:2.49),(Ca:3.57),(Ti:1.2),(Mn:0.32),(Fe:3.5)
##DET_HASH   : 12273538-fd48-a23f-0a19-f1e6fa85caef
##CALIB_HASH : 6abaa72c-aa41-8738-0be9-f592914732f3
##WORKING    : 15.0 mm
##DET_NAME   : EDAX All
##DET_MODE   : MediumLE
#SPECTRUM    :
28,
191,
5147,
8051,
65368,
5716,
3061,
7445,
5085,
29747,
8474,
24775,
87310,
40578,
3588,
3021,
3596,
2852,
2853,
2822,
2993,
2808,
2676,
4563,
11043,
3329,
13360,
5366,
2573,
3628,
2062,
2052,
5829,
2187,
1731,
2194,
1752,
1538,
1498,
1502,
1382,
1415,
2098,
1371,
1258,
2961,
7017,
1200,
1023,
1044,
1717,
1302,
927,
921,
905,
838,
848,
759,
775,
784,
659,
689,
681,
635,
593,
606,
544,
574,
546,
568,
522,
484,
444,
441,
443,
387,
409,
399,
369,
398,
358,
369,
310,
323,
288,
302,
268,
256,
238,
227,
243,
204,
202,
192,
176,
196,
172,
182,
168,
154,
152,
127,
124,
128,
112,
98,
90,
86,
105,
101,
73,
61,
64,
76,
69,
53,
49,
49,
37,
36,
39,
47,
37,
35,
23,
35,
15,
20,
14,
22,
18,
20,
14,
11,
15,
8,
8,
6,
8,
2,
3,
0,
2,
2,
0,
0,
0,
0,
1,
0,
0,
1,
0,
0,
0,
0,
0,
0,
0,
0,
0,
0,
0,
0,
0,
0,
0,
0,
0,
0,
0,
0,
0,
0,
0,
0,
0,
0,
0,
0,
0,
1,
0,
0,
0,
1,
0,
0,
0,
0,
0,
0,
0,
0,
0,
0,
0,
0,
0,
0,
0,
0,
0,
0,
0,
0,
0,
0,
0,
0,
0,
0,
0,
0,
0,
0,
0,
0,
0,
0,
0,
0,
0,
0,
0,
0,
0,
0,
0,
0,
0,
0,
0,
0,
0,
0,
0,
0,
0,
0,
0,
0,
0,
0,
0,
0,
0,
0,
0,
0,
0,
0,
0,
0,
0,
0,
0,
0,
0,
0,
0,
0,
0,
0,
0,
0,
0,
0,
0,
0,
0,
0,
0,
0,
0,
0,
0,
0,
0,
0,
0,
0,
0,
0,
0,
0,
0,
0,
0,
0,
0,
0,
0,
0,
#ENDOFDATA   :