File: N132962/Quantification/20 keV/Glass Mount IIIB/GM IIIB K453[4][4].msa
#FORMAT      : EMSA/MAS Spectral Data File
#VERSION     : 1.0
#TITLE       : GM IIIB K453[4][all]
#DATE        : 10-SEP-2025
#TIME        : 14:15
#OWNER       : Unknown
#NPOINTS     : 4096
#NCOLUMNS    : 1
#XUNITS      : eV
#YUNITS      : counts
#DATATYPE    : Y
#XPERCHAN    : 9.99778
#OFFSET      : 1.69135
#BEAMKV      : 20
#SIGNALTYPE  : EDS
#ELEVANGLE   : 35
#AZIMANGLE   : 0
#LIVETIME    : 240.171
#REALTIME    : 266.61
#PROBECUR    : 1.22574
#TAUWIND     : 0
#TDEADLYR    : 0
#TACTLYR     : 0.045
#TALWIND     : 0.025
#CHOFFSET    : 0.0
#XLABEL      : Energy (eV)
#YLABEL      : Counts
#XPOSITION   : -1.16863
#YPOSITION   : 4.03046
#ZPOSITION   : 34.06144
#EDSDET      : SD
##SPECIMEN   : GM IIIB K453[4][all]
##D2STDCMP   : K453,(O:16.84),(Ge:28.65),(Pb:54.51)
##DET_HASH   : 12273538-fd48-a23f-0a19-f1e6fa85caef
##CALIB_HASH : 6abaa72c-aa41-8738-0be9-f592914732f3
##WORKING    : 15.0 mm
##DET_NAME   : EDAX All
##DET_MODE   : MediumLE
#SPECTRUM    :
27,
571,
11624,
7428,
25265,
8553,
8280,
10560,
27550,
39829,
7551,
7953,
8822,
16919,
8825,
9020,
17653,
128409,
22531,
12575,
5875,
6611,
7961,
5960,
5681,
6082,
5909,
5737,
5578,
5490,
5438,
5384,
6009,
5463,
5363,
5215,
5083,
4971,
4795,
4785,
4689,
4528,
4520,
4377,
4268,
4189,
4509,
3971,
3883,
3844,
3641,
3579,
3610,
3599,
3408,
3339,
3228,
3180,
3095,
3037,
2965,
2912,
2868,
2759,
2703,
2820,
2974,
2406,
2421,
2654,
14782,
14606,
2379,
2125,
3011,
10822,
5999,
2074,
4037,
3089,
1644,
1665,
1613,
1495,
1395,
1340,
1414,
1471,
1453,
1847,
4782,
2057,
1251,
1263,
1034,
905,
926,
869,
840,
762,
754,
716,
691,
673,
686,
829,
748,
562,
592,
534,
432,
444,
432,
380,
387,
376,
361,
322,
306,
301,
258,
265,
231,
227,
212,
210,
191,
163,
154,
146,
105,
114,
110,
88,
84,
76,
63,
59,
34,
41,
24,
24,
12,
6,
7,
11,
5,
8,
5,
3,
5,
6,
3,
3,
5,
3,
1,
1,
4,
2,
2,
1,
0,
3,
2,
0,
2,
1,
3,
0,
0,
2,
1,
3,
3,
2,
2,
3,
0,
1,
1,
1,
2,
0,
0,
2,
0,
1,
0,
0,
0,
1,
1,
1,
2,
2,
1,
0,
0,
0,
1,
0,
2,
0,
0,
1,
0,
0,
0,
0,
0,
1,
0,
0,
0,
0,
0,
0,
0,
0,
0,
0,
0,
0,
0,
0,
0,
0,
0,
1,
0,
0,
1,
0,
0,
0,
0,
0,
0,
0,
0,
0,
0,
0,
0,
0,
0,
0,
0,
0,
0,
0,
0,
0,
0,
0,
0,
0,
0,
0,
0,
0,
0,
0,
0,
0,
0,
0,
0,
0,
0,
0,
0,
0,
0,
0,
0,
0,
0,
0,
0,
0,
0,
0,
0,
0,
0,
0,
0,
0,
0,
0,
0,
0,
#ENDOFDATA   :