File: N132962/Quantification/20 keV/Glass Mount IIIB/GM IIIB K963[2][4].msa
#FORMAT      : EMSA/MAS Spectral Data File
#VERSION     : 1.0
#TITLE       : GM IIIB K963[2][all]
#DATE        : 10-SEP-2025
#TIME        : 16:16
#OWNER       : Unknown
#NPOINTS     : 4096
#NCOLUMNS    : 1
#XUNITS      : eV
#YUNITS      : counts
#DATATYPE    : Y
#XPERCHAN    : 9.99778
#OFFSET      : 1.69135
#BEAMKV      : 20
#SIGNALTYPE  : EDS
#ELEVANGLE   : 35
#AZIMANGLE   : 0
#LIVETIME    : 240.106
#REALTIME    : 261.549
#PROBECUR    : 1.22413
#TAUWIND     : 0
#TDEADLYR    : 0
#TACTLYR     : 0.045
#TALWIND     : 0.025
#CHOFFSET    : 0.0
#XLABEL      : Energy (eV)
#YLABEL      : Counts
#XPOSITION   : 9.23851
#YPOSITION   : 12.47988
#ZPOSITION   : 34.06144
#EDSDET      : SD
##SPECIMEN   : GM IIIB K963[2][all]
##D2STDCMP   : K963,(O:31.92),(Mg:0.14),(Si:21.99),(P:0.36),(Ti:0.28),(Cr:0.3),(Ni:0.34),(Zn:3.0),(Ge:0.42),(Zr:0.53),(Ba:39.52),(Eu:0.88),(Th:0.13),(U:0.17)
##DET_HASH   : 12273538-fd48-a23f-0a19-f1e6fa85caef
##CALIB_HASH : 6abaa72c-aa41-8738-0be9-f592914732f3
##WORKING    : 15.0 mm
##DET_NAME   : EDAX All
##DET_MODE   : MediumLE
#SPECTRUM    :
28,
328,
8155,
10958,
70604,
5897,
6554,
11745,
5895,
7114,
5676,
6824,
56505,
28618,
5733,
6050,
5434,
5202,
4989,
5455,
5051,
4871,
5040,
4998,
4753,
4657,
4339,
4302,
5877,
4438,
4080,
7832,
66282,
4726,
15189,
20781,
5528,
12862,
3485,
5229,
4695,
3879,
3818,
2717,
2407,
2492,
2914,
2310,
2158,
2210,
2087,
1980,
1905,
2433,
2103,
1763,
1757,
1668,
1654,
1798,
1693,
2765,
3655,
1441,
1454,
1398,
1403,
1306,
1597,
1421,
1303,
1318,
1129,
1054,
1037,
987,
1008,
899,
936,
883,
854,
847,
793,
753,
777,
703,
631,
616,
631,
601,
630,
571,
554,
543,
469,
504,
439,
451,
375,
391,
372,
373,
352,
321,
319,
294,
278,
290,
263,
270,
232,
203,
230,
181,
180,
169,
152,
140,
133,
132,
121,
108,
106,
88,
102,
92,
82,
79,
52,
52,
52,
47,
37,
41,
39,
24,
31,
15,
9,
10,
7,
11,
2,
1,
4,
0,
3,
2,
0,
3,
0,
1,
1,
0,
1,
0,
0,
2,
1,
2,
0,
1,
0,
1,
0,
0,
3,
0,
1,
0,
0,
0,
0,
0,
1,
0,
0,
0,
0,
0,
0,
0,
0,
0,
1,
0,
0,
0,
0,
0,
0,
0,
0,
1,
0,
0,
0,
0,
0,
0,
0,
0,
1,
0,
0,
0,
0,
0,
0,
0,
0,
0,
0,
0,
0,
0,
0,
0,
0,
0,
0,
0,
0,
0,
0,
0,
0,
0,
0,
0,
0,
0,
0,
0,
0,
0,
0,
0,
0,
0,
0,
0,
0,
0,
0,
0,
0,
0,
0,
0,
0,
0,
0,
0,
0,
0,
0,
0,
0,
0,
0,
0,
0,
0,
0,
0,
0,
0,
0,
0,
0,
0,
0,
0,
0,
0,
0,
0,
0,
0,
0,
0,
0,
0,
0,
0,
0,
0,
0,
0,
0,
0,
0,
0,
#ENDOFDATA   :