File: N132962/Quantification/20 keV/Glass Mount IIIB/GM IIIB K508[3][4].msa
#FORMAT      : EMSA/MAS Spectral Data File
#VERSION     : 1.0
#TITLE       : GM IIIB K508[3][all]
#DATE        : 11-SEP-2025
#TIME        : 09:33
#OWNER       : Unknown
#NPOINTS     : 4096
#NCOLUMNS    : 1
#XUNITS      : eV
#YUNITS      : counts
#DATATYPE    : Y
#XPERCHAN    : 9.99778
#OFFSET      : 1.69135
#BEAMKV      : 20
#SIGNALTYPE  : EDS
#ELEVANGLE   : 35
#AZIMANGLE   : 0
#LIVETIME    : 240.14
#REALTIME    : 258.981
#PROBECUR    : 1.22303
#TAUWIND     : 0
#TDEADLYR    : 0
#TACTLYR     : 0.045
#TALWIND     : 0.025
#CHOFFSET    : 0.0
#XLABEL      : Energy (eV)
#YLABEL      : Counts
#XPOSITION   : 8.57702
#YPOSITION   : 9.62458
#ZPOSITION   : 34.00161
#EDSDET      : SD
##SPECIMEN   : GM IIIB K508[3][all]
##D2STDCMP   : K508,(B:9.26),(O:41.14),(Si:12.06),(Sr:37.54)
##DET_HASH   : 12273538-fd48-a23f-0a19-f1e6fa85caef
##CALIB_HASH : 6abaa72c-aa41-8738-0be9-f592914732f3
##WORKING    : 15.0 mm
##DET_NAME   : EDAX All
##DET_MODE   : MediumLE
#SPECTRUM    :
25,
820,
5664,
6131,
43419,
3528,
4271,
4999,
5649,
6456,
7274,
11913,
53189,
226012,
13806,
3321,
4047,
3571,
3295,
3420,
3447,
3509,
3359,
3408,
3347,
3575,
3689,
3185,
3052,
2979,
2847,
2700,
2927,
2726,
2464,
2502,
2406,
2321,
2160,
2210,
2096,
2099,
2087,
1948,
1824,
1803,
1851,
1823,
1665,
1675,
1586,
1525,
1449,
1440,
1433,
1341,
1294,
1259,
1264,
1158,
1094,
1108,
1085,
1039,
1021,
978,
981,
927,
847,
861,
823,
816,
796,
754,
755,
725,
618,
637,
595,
564,
577,
529,
603,
503,
479,
441,
448,
442,
440,
405,
368,
350,
346,
353,
341,
301,
315,
305,
279,
296,
855,
1957,
555,
217,
192,
194,
188,
173,
176,
135,
123,
141,
198,
322,
193,
109,
77,
89,
77,
88,
75,
69,
63,
45,
66,
49,
42,
41,
37,
40,
33,
30,
24,
29,
23,
24,
26,
13,
14,
6,
7,
4,
2,
2,
2,
2,
1,
2,
0,
0,
0,
0,
1,
0,
0,
0,
1,
0,
1,
0,
0,
0,
0,
0,
0,
2,
0,
0,
0,
0,
0,
0,
0,
0,
0,
0,
0,
0,
0,
0,
0,
0,
0,
0,
0,
1,
0,
0,
0,
0,
1,
0,
0,
0,
0,
0,
0,
0,
0,
0,
1,
0,
0,
0,
0,
0,
0,
0,
0,
0,
0,
0,
0,
0,
0,
0,
0,
1,
0,
0,
0,
0,
0,
0,
0,
0,
0,
0,
0,
0,
0,
0,
0,
0,
0,
0,
0,
0,
0,
0,
0,
0,
0,
0,
0,
0,
0,
0,
0,
0,
0,
0,
0,
0,
0,
0,
0,
0,
0,
0,
0,
0,
0,
0,
0,
0,
0,
0,
0,
0,
0,
0,
0,
0,
0,
0,
0,
0,
0,
0,
0,
0,
0,
0,
0,
0,
0,
0,
0,
0,
0,
0,
0,
0,
#ENDOFDATA   :