File: N132962/Quantification/20 keV/Glass Mount IIIB/GM IIIB K919[1][4].msa
#FORMAT      : EMSA/MAS Spectral Data File
#VERSION     : 1.0
#TITLE       : GM IIIB K919[1][all]
#DATE        : 10-SEP-2025
#TIME        : 16:03
#OWNER       : Unknown
#NPOINTS     : 4096
#NCOLUMNS    : 1
#XUNITS      : eV
#YUNITS      : counts
#DATATYPE    : Y
#XPERCHAN    : 9.99778
#OFFSET      : 1.69135
#BEAMKV      : 20
#SIGNALTYPE  : EDS
#ELEVANGLE   : 35
#AZIMANGLE   : 0
#LIVETIME    : 240.076
#REALTIME    : 261.5415
#PROBECUR    : 1.22368
#TAUWIND     : 0
#TDEADLYR    : 0
#TACTLYR     : 0.045
#TALWIND     : 0.025
#CHOFFSET    : 0.0
#XLABEL      : Energy (eV)
#YLABEL      : Counts
#XPOSITION   : 13.83918
#YPOSITION   : 11.95782
#ZPOSITION   : 34.06144
#EDSDET      : SD
##SPECIMEN   : GM IIIB K919[1][all]
##D2STDCMP   : K919,(O:31.86),(Si:20.1),(Cr:0.68),(Mn:1.9),(Fe:2.1),(Co:2.13),(Ni:2.36),(Cu:2.4),(Ba:34.03),(Ce:2.44)
##DET_HASH   : 12273538-fd48-a23f-0a19-f1e6fa85caef
##CALIB_HASH : 6abaa72c-aa41-8738-0be9-f592914732f3
##WORKING    : 15.0 mm
##DET_NAME   : EDAX All
##DET_MODE   : MediumLE
#SPECTRUM    :
31,
330,
7816,
11147,
73465,
10530,
10552,
7553,
4646,
4938,
5498,
6161,
52545,
26547,
4680,
4816,
5301,
5032,
4985,
5131,
5009,
5034,
5003,
4749,
4612,
4648,
4543,
4306,
5571,
4513,
4057,
7463,
57455,
4532,
14980,
20363,
5245,
12073,
4814,
5954,
4869,
3709,
8071,
3251,
2378,
3610,
6297,
2447,
2062,
4415,
4097,
2201,
1945,
4705,
3262,
2105,
1737,
3675,
3021,
2040,
1588,
1498,
1428,
1598,
1589,
1400,
1297,
1292,
1277,
1156,
1252,
1103,
1109,
1090,
1004,
1021,
978,
968,
920,
914,
849,
786,
845,
742,
731,
714,
627,
655,
650,
577,
590,
550,
528,
495,
476,
482,
428,
437,
406,
428,
356,
361,
335,
307,
344,
312,
259,
266,
240,
226,
216,
213,
193,
189,
187,
188,
182,
144,
120,
139,
128,
111,
108,
103,
94,
82,
74,
72,
60,
60,
47,
44,
52,
43,
34,
36,
32,
23,
17,
13,
11,
5,
2,
2,
1,
3,
1,
0,
2,
2,
2,
0,
2,
0,
1,
2,
1,
1,
1,
1,
0,
0,
0,
0,
1,
1,
0,
0,
2,
0,
0,
0,
0,
0,
0,
0,
1,
0,
1,
0,
0,
0,
2,
0,
1,
0,
0,
0,
0,
0,
0,
1,
0,
0,
0,
0,
0,
0,
0,
0,
0,
0,
0,
0,
0,
0,
0,
0,
0,
0,
1,
0,
0,
0,
0,
0,
0,
0,
0,
0,
0,
0,
0,
0,
0,
0,
0,
0,
0,
0,
0,
0,
0,
0,
0,
0,
0,
0,
0,
1,
0,
0,
0,
0,
0,
0,
0,
0,
0,
0,
0,
0,
0,
0,
0,
0,
0,
0,
0,
0,
0,
0,
0,
0,
0,
0,
0,
0,
0,
0,
0,
0,
0,
0,
0,
0,
0,
0,
0,
0,
0,
0,
0,
0,
0,
0,
0,
0,
0,
0,
0,
0,
0,
0,
#ENDOFDATA   :