File: N132962/Quantification/20 keV/Glass Mount IIIB/GM IIIB K979[4][4].msa
#FORMAT      : EMSA/MAS Spectral Data File
#VERSION     : 1.0
#TITLE       : GM IIIB K979[4][all]
#DATE        : 10-SEP-2025
#TIME        : 16:42
#OWNER       : Unknown
#NPOINTS     : 4096
#NCOLUMNS    : 1
#XUNITS      : eV
#YUNITS      : counts
#DATATYPE    : Y
#XPERCHAN    : 9.99778
#OFFSET      : 1.69135
#BEAMKV      : 20
#SIGNALTYPE  : EDS
#ELEVANGLE   : 35
#AZIMANGLE   : 0
#LIVETIME    : 240.113
#REALTIME    : 259.424
#PROBECUR    : 1.22416
#TAUWIND     : 0
#TDEADLYR    : 0
#TACTLYR     : 0.045
#TALWIND     : 0.025
#CHOFFSET    : 0.0
#XLABEL      : Energy (eV)
#YLABEL      : Counts
#XPOSITION   : -1.93168
#YPOSITION   : 11.30811
#ZPOSITION   : 34.06144
#EDSDET      : SD
##SPECIMEN   : GM IIIB K979[4][all]
##D2STDCMP   : K979,(Li:1.05),(O:40.58),(Al:8.92),(Si:21.02),(K:1.87),(Ca:6.75),(Ti:1.35),(Sr:10.05),(Nb:1.57),(Sb:0.84),(Cs:2.12),(Sm:1.94),(Dy:1.96)
##DET_HASH   : 12273538-fd48-a23f-0a19-f1e6fa85caef
##CALIB_HASH : 6abaa72c-aa41-8738-0be9-f592914732f3
##WORKING    : 15.0 mm
##DET_NAME   : EDAX All
##DET_MODE   : MediumLE
#SPECTRUM    :
31,
283,
6757,
6798,
46460,
3395,
4275,
5228,
6330,
8071,
12079,
36460,
63206,
72627,
6392,
4763,
6442,
3738,
3616,
3538,
3459,
3431,
3372,
4914,
9712,
4036,
24134,
9391,
4155,
5820,
3400,
4421,
7376,
4531,
2661,
3294,
2323,
2189,
2163,
2102,
3588,
2204,
1814,
1762,
2298,
2008,
2876,
2348,
1479,
1424,
1373,
1662,
1978,
1473,
1453,
1335,
1140,
1187,
1084,
1012,
1127,
972,
1027,
905,
904,
882,
839,
773,
783,
745,
800,
712,
722,
691,
641,
665,
609,
569,
530,
505,
553,
486,
456,
478,
451,
378,
412,
388,
381,
349,
323,
339,
309,
293,
284,
260,
256,
251,
242,
206,
387,
685,
304,
203,
165,
161,
160,
146,
155,
145,
119,
135,
129,
171,
114,
94,
69,
81,
60,
73,
74,
73,
58,
43,
52,
42,
44,
39,
35,
38,
31,
24,
19,
19,
19,
12,
19,
11,
9,
1,
5,
3,
3,
0,
0,
1,
0,
0,
0,
0,
0,
0,
0,
1,
0,
0,
1,
0,
1,
0,
0,
1,
0,
0,
1,
0,
0,
0,
0,
0,
0,
0,
0,
0,
1,
0,
0,
0,
0,
0,
0,
0,
0,
0,
0,
0,
0,
0,
0,
0,
0,
1,
0,
0,
0,
0,
0,
0,
0,
0,
0,
0,
0,
0,
0,
0,
0,
0,
0,
0,
0,
0,
0,
0,
0,
0,
0,
0,
0,
0,
0,
0,
0,
0,
0,
0,
0,
0,
0,
0,
0,
0,
0,
0,
0,
0,
0,
0,
0,
0,
0,
0,
0,
0,
0,
0,
0,
0,
0,
0,
0,
0,
0,
0,
0,
0,
0,
0,
0,
0,
0,
0,
0,
0,
0,
0,
0,
0,
0,
0,
0,
0,
0,
0,
0,
0,
0,
0,
0,
0,
0,
0,
0,
0,
0,
0,
0,
0,
0,
0,
0,
0,
0,
0,
#ENDOFDATA   :