File: N132962/Quantification/20 keV/Glass Mount IIIB/GM IIIB K251[2][4].msa
#FORMAT      : EMSA/MAS Spectral Data File
#VERSION     : 1.0
#TITLE       : GM IIIB K251[2][all]
#DATE        : 10-SEP-2025
#TIME        : 18:55
#OWNER       : Unknown
#NPOINTS     : 4096
#NCOLUMNS    : 1
#XUNITS      : eV
#YUNITS      : counts
#DATATYPE    : Y
#XPERCHAN    : 9.99778
#OFFSET      : 1.69135
#BEAMKV      : 20
#SIGNALTYPE  : EDS
#ELEVANGLE   : 35
#AZIMANGLE   : 0
#LIVETIME    : 240.316
#REALTIME    : 265.517
#PROBECUR    : 1.2221
#TAUWIND     : 0
#TDEADLYR    : 0
#TACTLYR     : 0.045
#TALWIND     : 0.025
#CHOFFSET    : 0.0
#XLABEL      : Energy (eV)
#YLABEL      : Counts
#XPOSITION   : 7.4733
#YPOSITION   : 0.84704
#ZPOSITION   : 34.00159
#EDSDET      : SD
##SPECIMEN   : GM IIIB K251[2][all]
##D2STDCMP   : K251,(O:23.02),(Al:1.32),(Si:14.02),(Ba:8.96),(Ta:4.09),(Pb:44.1),(Bi:4.48)
##DET_HASH   : 12273538-fd48-a23f-0a19-f1e6fa85caef
##CALIB_HASH : 6abaa72c-aa41-8738-0be9-f592914732f3
##WORKING    : 15.0 mm
##DET_NAME   : EDAX All
##DET_MODE   : MediumLE
#SPECTRUM    :
18,
492,
11026,
7959,
33389,
7608,
6778,
7480,
7596,
8725,
9994,
14277,
59710,
35457,
8444,
7940,
15114,
104996,
24125,
10785,
5515,
5862,
7027,
5688,
5347,
5392,
5160,
5133,
5273,
5220,
5027,
5680,
18144,
5033,
7271,
8417,
4964,
6557,
4238,
4527,
4490,
4270,
4108,
3763,
3734,
3740,
3903,
3566,
3351,
3323,
3295,
3293,
3070,
3248,
3144,
2947,
2750,
2793,
4700,
3098,
2566,
2432,
2392,
2396,
2339,
2441,
2885,
2810,
2329,
2379,
2036,
1872,
1830,
1830,
2454,
8294,
4726,
2224,
1939,
1546,
1502,
1429,
1344,
1322,
1250,
1234,
1265,
1265,
1212,
1593,
3676,
1738,
1159,
1235,
888,
857,
777,
705,
702,
690,
643,
607,
621,
564,
527,
726,
642,
540,
468,
447,
385,
390,
380,
344,
307,
335,
293,
303,
269,
235,
210,
219,
204,
205,
180,
158,
180,
140,
157,
128,
99,
86,
105,
85,
85,
55,
60,
35,
44,
22,
17,
23,
12,
9,
4,
4,
3,
4,
2,
0,
4,
1,
5,
3,
2,
2,
2,
2,
1,
1,
1,
1,
2,
0,
2,
2,
1,
1,
1,
0,
1,
3,
0,
1,
0,
0,
0,
1,
0,
0,
2,
1,
0,
0,
1,
3,
1,
0,
0,
0,
0,
0,
0,
1,
1,
0,
0,
0,
0,
0,
1,
0,
0,
0,
0,
0,
0,
0,
0,
0,
0,
2,
0,
0,
0,
0,
0,
0,
0,
0,
0,
0,
1,
0,
0,
1,
0,
0,
0,
0,
0,
0,
0,
0,
0,
0,
1,
0,
0,
0,
0,
0,
0,
0,
0,
0,
0,
0,
0,
0,
0,
0,
0,
0,
0,
0,
0,
0,
0,
0,
0,
0,
0,
0,
0,
0,
0,
0,
0,
0,
0,
0,
0,
0,
0,
0,
0,
0,
0,
0,
0,
0,
0,
0,
0,
0,
0,
0,
0,
0,
0,
0,
0,
0,
#ENDOFDATA   :