File: N132962/Quantification/20 keV/Glass Mount IIIB/GM IIIB K493[3][4].msa
#FORMAT      : EMSA/MAS Spectral Data File
#VERSION     : 1.0
#TITLE       : GM IIIB K493[3][all]
#DATE        : 10-SEP-2025
#TIME        : 15:19
#OWNER       : Unknown
#NPOINTS     : 4096
#NCOLUMNS    : 1
#XUNITS      : eV
#YUNITS      : counts
#DATATYPE    : Y
#XPERCHAN    : 9.99778
#OFFSET      : 1.69135
#BEAMKV      : 20
#SIGNALTYPE  : EDS
#ELEVANGLE   : 35
#AZIMANGLE   : 0
#LIVETIME    : 240.397
#REALTIME    : 267.498
#PROBECUR    : 1.22616
#TAUWIND     : 0
#TDEADLYR    : 0
#TACTLYR     : 0.045
#TALWIND     : 0.025
#CHOFFSET    : 0.0
#XLABEL      : Energy (eV)
#YLABEL      : Counts
#XPOSITION   : 1.743
#YPOSITION   : 7.01806
#ZPOSITION   : 34.06144
#EDSDET      : SD
##SPECIMEN   : GM IIIB K493[3][all]
##D2STDCMP   : K493,(B:0.04),(O:20.63),(Al:0.11),(Si:13.04),(Ti:0.19),(Fe:0.22),(Zr:0.36),(Ce:0.55),(Ta:0.72),(Pb:64.13)
##DET_HASH   : 12273538-fd48-a23f-0a19-f1e6fa85caef
##CALIB_HASH : 6abaa72c-aa41-8738-0be9-f592914732f3
##WORKING    : 15.0 mm
##DET_NAME   : EDAX All
##DET_MODE   : MediumLE
#SPECTRUM    :
28,
582,
11806,
7598,
28068,
8528,
7302,
7813,
8525,
9433,
10313,
11437,
53293,
39651,
9458,
10241,
19808,
153530,
25437,
12804,
5507,
6224,
7511,
5676,
5379,
5640,
5311,
5356,
5085,
5311,
5288,
5002,
6214,
5018,
5327,
5528,
4835,
4728,
4802,
4471,
4589,
4383,
4241,
4213,
4055,
4128,
4673,
3726,
3691,
3582,
3605,
3612,
3372,
3520,
3444,
3255,
3105,
2957,
3366,
2891,
2761,
2855,
2683,
2557,
2512,
2827,
2930,
2500,
2375,
2431,
2138,
2079,
2109,
2119,
3008,
11714,
6404,
1898,
1804,
1648,
1644,
1625,
1566,
1469,
1429,
1380,
1362,
1510,
1389,
2076,
5283,
2296,
1273,
1289,
1016,
915,
859,
814,
818,
772,
732,
721,
665,
666,
640,
878,
801,
559,
626,
524,
419,
454,
376,
373,
375,
347,
393,
299,
280,
259,
251,
218,
232,
222,
194,
188,
185,
179,
146,
133,
129,
111,
92,
92,
94,
68,
73,
64,
47,
33,
24,
21,
7,
6,
3,
5,
7,
2,
3,
3,
4,
3,
5,
6,
4,
4,
4,
1,
3,
2,
4,
2,
2,
3,
2,
2,
2,
0,
0,
1,
2,
1,
1,
0,
1,
3,
2,
2,
0,
2,
0,
0,
1,
3,
0,
2,
2,
0,
0,
0,
0,
1,
2,
0,
1,
1,
0,
0,
0,
0,
1,
0,
0,
0,
1,
2,
0,
0,
0,
1,
1,
1,
0,
0,
0,
0,
1,
0,
0,
0,
0,
0,
0,
0,
0,
1,
0,
0,
0,
0,
0,
0,
0,
0,
0,
0,
0,
0,
0,
0,
0,
0,
0,
0,
0,
0,
0,
0,
0,
0,
0,
0,
0,
0,
0,
0,
0,
0,
0,
0,
0,
0,
0,
0,
0,
0,
0,
0,
0,
0,
0,
0,
0,
0,
0,
0,
0,
0,
0,
0,
0,
0,
0,
0,
0,
0,
0,
0,
0,
0,
0,
0,
0,
0,
#ENDOFDATA   :