File: N132962/Quantification/20 keV/Glass Mount IIIB/GM IIIB K919[2][4].msa
#FORMAT      : EMSA/MAS Spectral Data File
#VERSION     : 1.0
#TITLE       : GM IIIB K919[2][all]
#DATE        : 10-SEP-2025
#TIME        : 16:05
#OWNER       : Unknown
#NPOINTS     : 4096
#NCOLUMNS    : 1
#XUNITS      : eV
#YUNITS      : counts
#DATATYPE    : Y
#XPERCHAN    : 9.99778
#OFFSET      : 1.69135
#BEAMKV      : 20
#SIGNALTYPE  : EDS
#ELEVANGLE   : 35
#AZIMANGLE   : 0
#LIVETIME    : 239.895
#REALTIME    : 261.28
#PROBECUR    : 1.22368
#TAUWIND     : 0
#TDEADLYR    : 0
#TACTLYR     : 0.045
#TALWIND     : 0.025
#CHOFFSET    : 0.0
#XLABEL      : Energy (eV)
#YLABEL      : Counts
#XPOSITION   : 13.82476
#YPOSITION   : 12.0299
#ZPOSITION   : 34.06144
#EDSDET      : SD
##SPECIMEN   : GM IIIB K919[2][all]
##D2STDCMP   : K919,(O:31.86),(Si:20.1),(Cr:0.68),(Mn:1.9),(Fe:2.1),(Co:2.13),(Ni:2.36),(Cu:2.4),(Ba:34.03),(Ce:2.44)
##DET_HASH   : 12273538-fd48-a23f-0a19-f1e6fa85caef
##CALIB_HASH : 6abaa72c-aa41-8738-0be9-f592914732f3
##WORKING    : 15.0 mm
##DET_NAME   : EDAX All
##DET_MODE   : MediumLE
#SPECTRUM    :
26,
323,
8244,
11011,
72750,
10687,
10711,
7747,
4727,
4932,
5340,
6352,
52317,
26666,
4736,
4806,
5570,
4940,
4881,
5098,
5029,
4925,
4940,
4728,
4538,
4593,
4575,
4262,
5695,
4421,
4101,
7539,
57917,
4598,
14975,
20131,
5076,
12201,
4784,
5921,
4996,
3828,
7932,
3310,
2459,
3571,
6281,
2543,
2097,
4286,
4129,
2177,
1990,
4610,
3315,
2100,
1778,
3523,
2924,
2122,
1642,
1507,
1509,
1613,
1523,
1316,
1250,
1290,
1233,
1165,
1142,
1123,
1095,
1089,
996,
990,
987,
922,
928,
843,
824,
833,
790,
736,
675,
690,
676,
605,
656,
608,
576,
551,
522,
493,
482,
433,
452,
452,
412,
376,
374,
346,
346,
300,
301,
301,
284,
230,
257,
233,
223,
197,
206,
189,
160,
153,
143,
156,
140,
144,
120,
97,
114,
91,
84,
78,
87,
87,
50,
48,
56,
44,
31,
40,
30,
37,
28,
27,
17,
8,
8,
4,
5,
4,
0,
1,
0,
0,
0,
1,
2,
1,
0,
2,
1,
1,
1,
0,
1,
0,
0,
1,
0,
0,
0,
0,
0,
0,
1,
0,
0,
1,
0,
0,
1,
0,
0,
0,
0,
0,
0,
0,
0,
0,
0,
0,
0,
0,
0,
0,
0,
0,
0,
0,
0,
1,
0,
0,
0,
0,
0,
0,
0,
0,
0,
0,
0,
0,
0,
0,
0,
0,
0,
0,
0,
0,
0,
0,
0,
0,
0,
0,
0,
0,
0,
0,
0,
0,
0,
0,
0,
0,
0,
0,
0,
0,
0,
0,
0,
0,
0,
0,
0,
0,
0,
0,
0,
0,
0,
0,
0,
0,
0,
0,
0,
0,
0,
0,
0,
0,
0,
0,
0,
0,
0,
0,
0,
0,
0,
0,
0,
0,
0,
0,
0,
0,
0,
0,
0,
0,
0,
0,
0,
0,
0,
0,
0,
0,
0,
0,
0,
0,
0,
0,
#ENDOFDATA   :