File: N132962/Quantification/20 keV/Glass Mount IIIB/GM IIIB K1070[4][4].msa
#FORMAT      : EMSA/MAS Spectral Data File
#VERSION     : 1.0
#TITLE       : GM IIIB K1070[4][all]
#DATE        : 10-SEP-2025
#TIME        : 16:54
#OWNER       : Unknown
#NPOINTS     : 4096
#NCOLUMNS    : 1
#XUNITS      : eV
#YUNITS      : counts
#DATATYPE    : Y
#XPERCHAN    : 9.99778
#OFFSET      : 1.69135
#BEAMKV      : 20
#SIGNALTYPE  : EDS
#ELEVANGLE   : 35
#AZIMANGLE   : 0
#LIVETIME    : 240.147
#REALTIME    : 259.947
#PROBECUR    : 1.22416
#TAUWIND     : 0
#TDEADLYR    : 0
#TACTLYR     : 0.045
#TALWIND     : 0.025
#CHOFFSET    : 0.0
#XLABEL      : Energy (eV)
#YLABEL      : Counts
#XPOSITION   : 1.19211
#YPOSITION   : 13.46242
#ZPOSITION   : 34.06144
#EDSDET      : SD
##SPECIMEN   : GM IIIB K1070[4][all]
##D2STDCMP   : K1070,(O:34.31),(Mg:7.54),(Si:18.7),(Ca:8.93),(Zn:10.04),(Ba:11.2),(Pb:9.28)
##DET_HASH   : 12273538-fd48-a23f-0a19-f1e6fa85caef
##CALIB_HASH : 6abaa72c-aa41-8738-0be9-f592914732f3
##WORKING    : 15.0 mm
##DET_NAME   : EDAX All
##DET_MODE   : MediumLE
#SPECTRUM    :
24,
240,
9467,
7101,
46832,
4589,
5754,
27465,
6121,
52604,
5344,
6126,
51815,
27486,
4950,
4529,
6117,
21777,
6505,
5493,
4148,
4256,
4488,
4028,
3888,
4161,
29189,
11978,
4987,
7309,
3196,
4061,
19448,
3214,
5952,
7575,
3258,
5097,
2614,
3076,
2784,
2628,
2431,
2153,
2088,
2012,
2154,
1923,
1823,
1830,
1826,
1686,
1723,
1700,
1643,
1490,
1444,
1460,
1375,
1370,
1293,
5445,
8390,
1355,
1192,
1189,
1218,
1104,
2090,
1481,
991,
910,
922,
915,
1044,
1982,
1267,
779,
770,
735,
731,
684,
595,
659,
602,
602,
566,
505,
528,
576,
979,
582,
429,
450,
403,
377,
328,
361,
346,
273,
317,
293,
256,
258,
228,
265,
241,
222,
221,
193,
175,
162,
143,
145,
165,
137,
120,
110,
105,
79,
96,
82,
90,
72,
67,
69,
67,
38,
51,
39,
40,
32,
28,
33,
29,
15,
23,
15,
17,
6,
11,
7,
4,
2,
0,
0,
1,
1,
1,
1,
0,
3,
0,
0,
0,
0,
1,
1,
0,
1,
0,
0,
0,
1,
0,
0,
0,
0,
0,
0,
0,
0,
0,
0,
0,
0,
1,
0,
2,
0,
0,
0,
0,
0,
0,
0,
0,
0,
0,
0,
0,
0,
0,
0,
0,
0,
0,
0,
0,
0,
0,
0,
0,
0,
0,
0,
0,
0,
0,
0,
0,
0,
0,
0,
0,
0,
0,
0,
0,
0,
0,
0,
0,
0,
0,
0,
0,
0,
0,
0,
0,
0,
0,
0,
0,
0,
0,
0,
0,
0,
0,
0,
0,
0,
0,
0,
0,
0,
0,
0,
0,
0,
0,
0,
0,
0,
0,
0,
0,
0,
0,
0,
0,
0,
0,
0,
0,
0,
0,
0,
0,
0,
0,
0,
0,
0,
0,
0,
0,
0,
0,
0,
0,
0,
0,
0,
0,
0,
0,
0,
0,
0,
0,
0,
#ENDOFDATA   :