File: N132962/Quantification/20 keV/Glass Mount IIIB/GM IIIB K491[4][4].msa
#FORMAT      : EMSA/MAS Spectral Data File
#VERSION     : 1.0
#TITLE       : GM IIIB K491[4][all]
#DATE        : 10-SEP-2025
#TIME        : 15:14
#OWNER       : Unknown
#NPOINTS     : 4096
#NCOLUMNS    : 1
#XUNITS      : eV
#YUNITS      : counts
#DATATYPE    : Y
#XPERCHAN    : 9.99778
#OFFSET      : 1.69135
#BEAMKV      : 20
#SIGNALTYPE  : EDS
#ELEVANGLE   : 35
#AZIMANGLE   : 0
#LIVETIME    : 240.193
#REALTIME    : 266.659
#PROBECUR    : 1.22616
#TAUWIND     : 0
#TDEADLYR    : 0
#TACTLYR     : 0.045
#TALWIND     : 0.025
#CHOFFSET    : 0.0
#XLABEL      : Energy (eV)
#YLABEL      : Counts
#XPOSITION   : 4.01449
#YPOSITION   : 6.72817
#ZPOSITION   : 34.06144
#EDSDET      : SD
##SPECIMEN   : GM IIIB K491[4][all]
##D2STDCMP   : K491,(B:0.03),(O:16.65),(Al:0.08),(Si:0.09),(Ti:0.16),(Fe:0.18),(Ge:26.36),(Zr:0.3),(Ce:0.46),(Ta:0.59),(Pb:55.1)
##DET_HASH   : 12273538-fd48-a23f-0a19-f1e6fa85caef
##CALIB_HASH : 6abaa72c-aa41-8738-0be9-f592914732f3
##WORKING    : 15.0 mm
##DET_NAME   : EDAX All
##DET_MODE   : MediumLE
#SPECTRUM    :
26,
567,
11779,
7522,
24510,
9063,
8325,
10326,
26056,
37188,
7873,
8504,
10556,
17507,
9019,
9959,
17973,
129705,
22976,
12598,
5819,
6617,
7859,
6088,
5747,
6019,
5875,
5751,
5635,
5615,
5531,
5431,
6526,
5538,
5642,
5647,
4922,
5107,
5292,
4948,
4814,
4722,
4481,
4507,
4367,
4534,
4838,
4044,
4038,
3897,
3839,
3789,
3605,
3851,
3530,
3344,
3269,
3170,
3484,
3127,
3008,
2992,
2824,
2702,
2617,
2982,
2991,
2675,
2550,
2650,
13960,
13629,
2331,
2095,
3118,
10974,
6123,
2114,
3793,
3081,
1716,
1635,
1464,
1515,
1424,
1347,
1402,
1423,
1495,
1879,
4887,
2125,
1259,
1212,
1033,
884,
909,
904,
852,
823,
745,
676,
681,
644,
613,
886,
792,
604,
579,
535,
468,
466,
436,
422,
345,
355,
356,
316,
343,
280,
296,
243,
219,
231,
202,
199,
214,
186,
162,
154,
134,
109,
111,
95,
100,
72,
50,
55,
52,
27,
23,
26,
15,
9,
4,
10,
12,
2,
4,
5,
5,
3,
4,
2,
3,
2,
2,
2,
2,
3,
2,
4,
5,
1,
2,
2,
5,
3,
0,
0,
3,
1,
1,
1,
2,
0,
2,
0,
3,
1,
4,
2,
1,
1,
1,
1,
2,
0,
2,
1,
0,
1,
0,
0,
1,
1,
0,
2,
2,
0,
0,
0,
0,
1,
1,
0,
0,
0,
0,
0,
0,
0,
0,
0,
0,
1,
0,
0,
0,
0,
0,
0,
1,
0,
0,
0,
0,
0,
1,
0,
0,
0,
0,
0,
0,
0,
0,
0,
0,
0,
0,
0,
0,
0,
0,
0,
0,
0,
0,
0,
0,
0,
0,
0,
0,
0,
0,
0,
0,
0,
0,
0,
0,
0,
0,
0,
0,
0,
0,
0,
0,
0,
0,
0,
0,
0,
0,
0,
0,
0,
0,
0,
0,
0,
0,
0,
0,
0,
0,
0,
0,
0,
0,
0,
#ENDOFDATA   :