File: N132962/Quantification/20 keV/Glass Mount IIIB/GM IIIB K251[4][4].msa
#FORMAT      : EMSA/MAS Spectral Data File
#VERSION     : 1.0
#TITLE       : GM IIIB K251[4][all]
#DATE        : 10-SEP-2025
#TIME        : 18:58
#OWNER       : Unknown
#NPOINTS     : 4096
#NCOLUMNS    : 1
#XUNITS      : eV
#YUNITS      : counts
#DATATYPE    : Y
#XPERCHAN    : 9.99778
#OFFSET      : 1.69135
#BEAMKV      : 20
#SIGNALTYPE  : EDS
#ELEVANGLE   : 35
#AZIMANGLE   : 0
#LIVETIME    : 240.2055
#REALTIME    : 265.3949
#PROBECUR    : 1.2221
#TAUWIND     : 0
#TDEADLYR    : 0
#TACTLYR     : 0.045
#TALWIND     : 0.025
#CHOFFSET    : 0.0
#XLABEL      : Energy (eV)
#YLABEL      : Counts
#XPOSITION   : 7.38813
#YPOSITION   : 0.87921
#ZPOSITION   : 34.00159
#EDSDET      : SD
##SPECIMEN   : GM IIIB K251[4][all]
##D2STDCMP   : K251,(O:23.02),(Al:1.32),(Si:14.02),(Ba:8.96),(Ta:4.09),(Pb:44.1),(Bi:4.48)
##DET_HASH   : 12273538-fd48-a23f-0a19-f1e6fa85caef
##CALIB_HASH : 6abaa72c-aa41-8738-0be9-f592914732f3
##WORKING    : 15.0 mm
##DET_NAME   : EDAX All
##DET_MODE   : MediumLE
#SPECTRUM    :
34,
512,
10595,
7922,
33906,
7455,
6779,
7543,
7643,
8700,
10193,
14325,
59833,
36090,
8259,
8162,
15037,
104879,
24485,
10765,
5685,
5924,
6955,
5705,
5266,
5471,
5083,
5117,
5433,
5161,
5144,
5588,
18192,
4944,
7405,
8570,
4819,
6514,
4374,
4605,
4547,
4215,
4039,
3647,
3638,
3670,
3895,
3523,
3394,
3345,
3179,
3191,
3087,
3150,
2941,
2852,
2756,
2880,
4728,
3038,
2511,
2528,
2364,
2459,
2326,
2551,
2774,
2858,
2274,
2420,
1945,
1860,
1910,
1793,
2478,
8246,
4778,
2168,
2031,
1519,
1469,
1534,
1388,
1250,
1304,
1210,
1234,
1288,
1202,
1555,
3859,
1709,
1117,
1309,
855,
820,
773,
754,
714,
730,
643,
609,
640,
606,
565,
699,
592,
457,
475,
469,
422,
407,
385,
363,
340,
339,
298,
292,
254,
234,
223,
240,
175,
171,
159,
158,
166,
129,
143,
140,
102,
95,
101,
91,
68,
62,
48,
42,
39,
27,
25,
17,
9,
10,
6,
2,
4,
6,
4,
4,
1,
1,
3,
1,
1,
1,
1,
1,
0,
1,
0,
1,
0,
2,
0,
0,
0,
1,
2,
1,
0,
0,
1,
0,
1,
0,
1,
2,
0,
2,
1,
2,
0,
1,
0,
0,
0,
1,
1,
2,
1,
1,
0,
1,
2,
0,
1,
0,
1,
0,
1,
2,
1,
0,
0,
0,
0,
0,
0,
0,
1,
0,
1,
0,
0,
0,
0,
0,
0,
0,
0,
0,
0,
0,
0,
1,
0,
0,
0,
1,
0,
0,
1,
0,
0,
0,
0,
0,
0,
1,
0,
0,
0,
0,
0,
0,
0,
0,
0,
0,
0,
0,
0,
0,
0,
0,
0,
0,
0,
0,
0,
0,
0,
0,
0,
0,
0,
0,
0,
0,
0,
0,
0,
0,
0,
0,
0,
0,
0,
0,
0,
0,
0,
0,
0,
0,
0,
0,
0,
0,
0,
0,
0,
0,
#ENDOFDATA   :