File: N132962/Quantification/20 keV/Glass Mount IIIB/GM IIIB K508[0][4].msa
#FORMAT      : EMSA/MAS Spectral Data File
#VERSION     : 1.0
#TITLE       : GM IIIB K508[0][all]
#DATE        : 11-SEP-2025
#TIME        : 09:29
#OWNER       : Unknown
#NPOINTS     : 4096
#NCOLUMNS    : 1
#XUNITS      : eV
#YUNITS      : counts
#DATATYPE    : Y
#XPERCHAN    : 9.99778
#OFFSET      : 1.69135
#BEAMKV      : 20
#SIGNALTYPE  : EDS
#ELEVANGLE   : 35
#AZIMANGLE   : 0
#LIVETIME    : 240.189
#REALTIME    : 258.992
#PROBECUR    : 1.22303
#TAUWIND     : 0
#TDEADLYR    : 0
#TACTLYR     : 0.045
#TALWIND     : 0.025
#CHOFFSET    : 0.0
#XLABEL      : Energy (eV)
#YLABEL      : Counts
#XPOSITION   : 8.56882
#YPOSITION   : 9.66999
#ZPOSITION   : 34.00161
#EDSDET      : SD
##SPECIMEN   : GM IIIB K508[0][all]
##D2STDCMP   : K508,(B:9.26),(O:41.14),(Si:12.06),(Sr:37.54)
##DET_HASH   : 12273538-fd48-a23f-0a19-f1e6fa85caef
##CALIB_HASH : 6abaa72c-aa41-8738-0be9-f592914732f3
##WORKING    : 15.0 mm
##DET_NAME   : EDAX All
##DET_MODE   : MediumLE
#SPECTRUM    :
19,
813,
5928,
6314,
42752,
4104,
4313,
5076,
5796,
6381,
7210,
11869,
53248,
224808,
13893,
3455,
4073,
3648,
3253,
3576,
3393,
3432,
3426,
3443,
3346,
3608,
3529,
3161,
3047,
2860,
2726,
2658,
2916,
2682,
2487,
2441,
2367,
2300,
2235,
2161,
2187,
2028,
1994,
1903,
1873,
1793,
1941,
1653,
1642,
1594,
1532,
1520,
1481,
1479,
1446,
1351,
1238,
1261,
1185,
1190,
1109,
1071,
1101,
1071,
987,
962,
959,
954,
902,
791,
846,
791,
782,
705,
717,
684,
670,
618,
594,
626,
591,
604,
539,
488,
463,
454,
517,
423,
377,
389,
388,
384,
332,
349,
324,
304,
285,
295,
276,
299,
799,
1966,
580,
232,
211,
186,
197,
188,
142,
163,
134,
142,
207,
375,
171,
134,
94,
94,
66,
70,
74,
64,
72,
59,
50,
56,
49,
34,
35,
28,
34,
26,
29,
26,
15,
18,
18,
7,
9,
1,
7,
4,
1,
1,
0,
1,
0,
0,
1,
0,
0,
1,
0,
0,
0,
0,
0,
0,
0,
0,
0,
0,
0,
0,
0,
0,
0,
1,
0,
0,
0,
0,
0,
1,
0,
0,
1,
0,
0,
0,
0,
0,
1,
1,
0,
0,
0,
0,
0,
0,
0,
0,
0,
0,
0,
0,
0,
0,
0,
0,
0,
1,
0,
0,
0,
0,
0,
0,
0,
0,
0,
0,
0,
0,
0,
0,
0,
0,
0,
0,
0,
0,
0,
0,
0,
0,
0,
0,
0,
0,
0,
0,
0,
0,
0,
0,
0,
0,
0,
0,
0,
0,
0,
0,
0,
0,
0,
0,
0,
0,
0,
0,
0,
0,
0,
0,
0,
0,
0,
0,
0,
0,
0,
0,
0,
0,
0,
0,
0,
0,
0,
0,
0,
0,
0,
0,
0,
0,
0,
0,
0,
0,
0,
0,
0,
0,
0,
0,
0,
0,
0,
0,
0,
0,
#ENDOFDATA   :