File: N132962/Quantification/20 keV/Glass Mount IIIB/GM IIIB K968[1][4].msa
#FORMAT      : EMSA/MAS Spectral Data File
#VERSION     : 1.0
#TITLE       : GM IIIB K968[1][all]
#DATE        : 10-SEP-2025
#TIME        : 16:21
#OWNER       : Unknown
#NPOINTS     : 4096
#NCOLUMNS    : 1
#XUNITS      : eV
#YUNITS      : counts
#DATATYPE    : Y
#XPERCHAN    : 9.99778
#OFFSET      : 1.69135
#BEAMKV      : 20
#SIGNALTYPE  : EDS
#ELEVANGLE   : 35
#AZIMANGLE   : 0
#LIVETIME    : 240.2726
#REALTIME    : 266.541
#PROBECUR    : 1.22413
#TAUWIND     : 0
#TDEADLYR    : 0
#TACTLYR     : 0.045
#TALWIND     : 0.025
#CHOFFSET    : 0.0
#XLABEL      : Energy (eV)
#YLABEL      : Counts
#XPOSITION   : 7.2557
#YPOSITION   : 12.21592
#ZPOSITION   : 34.06144
#EDSDET      : SD
##SPECIMEN   : GM IIIB K968[1][all]
##D2STDCMP   : K968,(O:16.62),(Mg:0.08),(P:0.2),(Ti:0.16),(Cr:0.17),(Ni:0.19),(Ge:26.27),(Zr:0.3),(Ba:0.45),(Eu:0.49),(Pb:54.91),(Th:0.08),(U:0.09)
##DET_HASH   : 12273538-fd48-a23f-0a19-f1e6fa85caef
##CALIB_HASH : 6abaa72c-aa41-8738-0be9-f592914732f3
##WORKING    : 15.0 mm
##DET_NAME   : EDAX All
##DET_MODE   : MediumLE
#SPECTRUM    :
20,
599,
11730,
7624,
25202,
8859,
8409,
10048,
25904,
37407,
7815,
7989,
8942,
17002,
9566,
10179,
17827,
128885,
23177,
12391,
6014,
6688,
7921,
6275,
5922,
6005,
5872,
5611,
5541,
5319,
5501,
5381,
7247,
5555,
5532,
5542,
5127,
5021,
4983,
5026,
4608,
4729,
4930,
4400,
4257,
4220,
4824,
4026,
3968,
3961,
3910,
3701,
3441,
3925,
3628,
3293,
3251,
3183,
3115,
3150,
2952,
2870,
2810,
2678,
2658,
2910,
2921,
2521,
2504,
2664,
13724,
13590,
2384,
2172,
3120,
10807,
6136,
2129,
3746,
3000,
1682,
1636,
1576,
1460,
1489,
1328,
1399,
1468,
1424,
1954,
4772,
2068,
1264,
1254,
993,
917,
879,
836,
793,
867,
750,
703,
710,
656,
662,
848,
785,
570,
606,
569,
516,
469,
410,
415,
405,
363,
346,
294,
313,
271,
287,
285,
242,
220,
219,
184,
187,
159,
148,
145,
127,
119,
109,
96,
82,
81,
57,
74,
67,
46,
29,
24,
10,
4,
7,
6,
5,
5,
4,
1,
3,
3,
6,
5,
7,
4,
0,
3,
3,
2,
5,
2,
2,
2,
3,
3,
1,
2,
3,
4,
0,
1,
1,
0,
0,
2,
1,
3,
2,
0,
2,
0,
0,
1,
1,
1,
2,
2,
0,
2,
1,
1,
0,
1,
0,
0,
1,
0,
1,
1,
1,
0,
0,
0,
1,
0,
0,
1,
0,
0,
1,
0,
0,
0,
0,
0,
0,
0,
0,
0,
0,
0,
0,
0,
1,
0,
0,
0,
0,
0,
0,
0,
0,
0,
0,
1,
0,
0,
0,
0,
0,
0,
0,
0,
0,
0,
0,
0,
0,
0,
0,
0,
0,
0,
0,
0,
0,
0,
0,
0,
0,
0,
0,
0,
0,
0,
0,
0,
0,
0,
0,
0,
0,
0,
0,
0,
0,
0,
0,
0,
0,
0,
0,
0,
0,
0,
0,
0,
0,
0,
0,
0,
0,
0,
#ENDOFDATA   :