File: N132962/Quantification/20 keV/Glass Mount IIIB/GM IIIB K1132[2][4].msa
#FORMAT      : EMSA/MAS Spectral Data File
#VERSION     : 1.0
#TITLE       : GM IIIB K1132[2][all]
#DATE        : 10-SEP-2025
#TIME        : 17:33
#OWNER       : Unknown
#NPOINTS     : 4096
#NCOLUMNS    : 1
#XUNITS      : eV
#YUNITS      : counts
#DATATYPE    : Y
#XPERCHAN    : 9.99778
#OFFSET      : 1.69135
#BEAMKV      : 20
#SIGNALTYPE  : EDS
#ELEVANGLE   : 35
#AZIMANGLE   : 0
#LIVETIME    : 240.128
#REALTIME    : 258.7903
#PROBECUR    : 1.22427
#TAUWIND     : 0
#TDEADLYR    : 0
#TACTLYR     : 0.045
#TALWIND     : 0.025
#CHOFFSET    : 0.0
#XLABEL      : Energy (eV)
#YLABEL      : Counts
#XPOSITION   : 7.08155
#YPOSITION   : 16.34489
#ZPOSITION   : 34.06144
#EDSDET      : SD
##SPECIMEN   : GM IIIB K1132[2][all]
##D2STDCMP   : K1132,(Li:2.32),(O:41.34),(Al:7.94),(Si:21.39),(Ca:10.72),(Cr:0.51),(Ni:1.18),(Mo:1.67),(Ba:13.43)
##DET_HASH   : 12273538-fd48-a23f-0a19-f1e6fa85caef
##CALIB_HASH : 6abaa72c-aa41-8738-0be9-f592914732f3
##WORKING    : 15.0 mm
##DET_NAME   : EDAX All
##DET_MODE   : MediumLE
#SPECTRUM    :
33,
250,
7738,
7162,
55645,
3427,
6255,
4730,
4557,
5127,
9789,
28625,
58433,
28328,
4440,
3735,
6404,
6076,
4159,
3794,
3742,
3580,
3487,
3613,
3266,
3543,
34263,
12807,
4823,
7563,
2748,
3738,
21714,
2547,
5806,
7674,
2760,
5102,
2380,
3587,
2526,
2087,
2021,
1797,
1618,
1577,
1575,
1537,
1457,
1375,
1350,
1349,
1353,
2687,
1837,
1177,
1110,
1051,
1069,
1207,
1029,
967,
912,
880,
919,
895,
807,
809,
793,
736,
745,
720,
683,
671,
639,
586,
579,
539,
547,
501,
569,
529,
490,
463,
421,
427,
424,
441,
377,
375,
366,
338,
349,
299,
264,
297,
242,
238,
245,
221,
229,
177,
201,
167,
194,
158,
154,
147,
135,
130,
122,
118,
103,
145,
90,
95,
97,
82,
74,
65,
59,
65,
65,
40,
67,
47,
48,
46,
24,
30,
26,
33,
20,
23,
13,
21,
21,
10,
6,
7,
5,
4,
1,
0,
0,
1,
1,
0,
2,
1,
0,
0,
1,
0,
0,
0,
0,
0,
0,
0,
0,
0,
0,
0,
0,
0,
0,
0,
0,
0,
0,
0,
0,
0,
0,
0,
0,
0,
0,
0,
0,
0,
0,
0,
0,
0,
0,
0,
0,
0,
0,
0,
0,
0,
0,
0,
0,
0,
0,
0,
0,
0,
0,
0,
0,
0,
0,
0,
0,
0,
0,
0,
0,
0,
0,
0,
0,
0,
0,
0,
0,
0,
0,
0,
0,
0,
0,
0,
0,
0,
0,
0,
0,
0,
0,
0,
0,
0,
0,
0,
0,
0,
0,
0,
0,
0,
0,
0,
0,
0,
0,
0,
0,
0,
0,
0,
0,
0,
0,
0,
0,
0,
0,
0,
0,
0,
0,
0,
0,
0,
0,
0,
0,
0,
0,
0,
0,
0,
0,
0,
0,
0,
0,
0,
0,
0,
0,
0,
0,
0,
0,
0,
0,
0,
#ENDOFDATA   :