File: N132962/Quantification/20 keV/Glass Mount IIIB/GM IIIB K508[6][4].msa
#FORMAT      : EMSA/MAS Spectral Data File
#VERSION     : 1.0
#TITLE       : GM IIIB K508[6][all]
#DATE        : 11-SEP-2025
#TIME        : 09:36
#OWNER       : Unknown
#NPOINTS     : 4096
#NCOLUMNS    : 1
#XUNITS      : eV
#YUNITS      : counts
#DATATYPE    : Y
#XPERCHAN    : 9.99778
#OFFSET      : 1.69135
#BEAMKV      : 20
#SIGNALTYPE  : EDS
#ELEVANGLE   : 35
#AZIMANGLE   : 0
#LIVETIME    : 240.053
#REALTIME    : 258.864
#PROBECUR    : 1.22303
#TAUWIND     : 0
#TDEADLYR    : 0
#TACTLYR     : 0.045
#TALWIND     : 0.025
#CHOFFSET    : 0.0
#XLABEL      : Energy (eV)
#YLABEL      : Counts
#XPOSITION   : 8.60767
#YPOSITION   : 9.67727
#ZPOSITION   : 34.00161
#EDSDET      : SD
##SPECIMEN   : GM IIIB K508[6][all]
##D2STDCMP   : K508,(B:9.26),(O:41.14),(Si:12.06),(Sr:37.54)
##DET_HASH   : 12273538-fd48-a23f-0a19-f1e6fa85caef
##CALIB_HASH : 6abaa72c-aa41-8738-0be9-f592914732f3
##WORKING    : 15.0 mm
##DET_NAME   : EDAX All
##DET_MODE   : MediumLE
#SPECTRUM    :
26,
719,
6257,
6274,
43375,
4043,
4164,
5067,
5753,
6354,
7007,
11828,
53091,
224815,
13771,
3530,
3939,
3597,
3364,
3512,
3542,
3478,
3358,
3342,
3333,
3521,
3714,
3147,
3030,
2867,
2720,
2734,
2929,
2544,
2517,
2415,
2345,
2335,
2255,
2195,
2072,
2025,
2050,
1974,
1816,
1869,
1872,
1741,
1683,
1607,
1489,
1493,
1483,
1437,
1322,
1361,
1319,
1276,
1273,
1156,
1143,
1070,
1103,
1039,
1011,
1058,
927,
878,
897,
846,
841,
780,
764,
753,
716,
696,
720,
699,
625,
669,
626,
580,
583,
538,
507,
489,
493,
462,
430,
440,
388,
362,
339,
347,
311,
339,
292,
268,
239,
272,
849,
1931,
602,
211,
187,
208,
190,
174,
143,
146,
147,
137,
206,
372,
191,
130,
114,
110,
76,
70,
78,
65,
60,
63,
57,
52,
47,
39,
35,
33,
28,
25,
27,
18,
19,
22,
13,
9,
7,
8,
2,
2,
3,
3,
1,
0,
0,
2,
0,
1,
0,
2,
0,
0,
1,
0,
0,
0,
0,
1,
0,
0,
0,
0,
0,
1,
0,
0,
0,
0,
0,
0,
0,
0,
0,
0,
0,
0,
1,
0,
0,
0,
0,
0,
0,
0,
0,
0,
0,
0,
0,
0,
0,
0,
0,
0,
1,
0,
0,
0,
0,
0,
0,
0,
0,
0,
0,
0,
0,
0,
0,
1,
0,
0,
0,
0,
0,
0,
0,
0,
0,
0,
0,
0,
0,
0,
0,
0,
0,
0,
0,
0,
0,
0,
0,
0,
0,
0,
0,
0,
0,
0,
0,
0,
0,
0,
0,
0,
0,
0,
0,
0,
0,
0,
0,
0,
0,
0,
0,
0,
0,
0,
0,
0,
0,
0,
0,
0,
0,
0,
0,
0,
0,
0,
0,
0,
0,
0,
0,
0,
0,
0,
0,
0,
0,
0,
0,
0,
0,
0,
0,
0,
0,
0,
#ENDOFDATA   :