File: N132962/Quantification/20 keV/Glass Mount IIIB/GM IIIB K412[0][4].msa
#FORMAT      : EMSA/MAS Spectral Data File
#VERSION     : 1.0
#TITLE       : GM IIIB K412[0][all]
#DATE        : 10-SEP-2025
#TIME        : 14:16
#OWNER       : Unknown
#NPOINTS     : 4096
#NCOLUMNS    : 1
#XUNITS      : eV
#YUNITS      : counts
#DATATYPE    : Y
#XPERCHAN    : 9.99778
#OFFSET      : 1.69135
#BEAMKV      : 20
#SIGNALTYPE  : EDS
#ELEVANGLE   : 35
#AZIMANGLE   : 0
#LIVETIME    : 240.18
#REALTIME    : 258.474
#PROBECUR    : 1.22574
#TAUWIND     : 0
#TDEADLYR    : 0
#TACTLYR     : 0.045
#TALWIND     : 0.025
#CHOFFSET    : 0.0
#XLABEL      : Energy (eV)
#YLABEL      : Counts
#XPOSITION   : 3.15807
#YPOSITION   : 4.78829
#ZPOSITION   : 34.06144
#EDSDET      : SD
##SPECIMEN   : GM IIIB K412[0][all]
##D2STDCMP   : K412,(O:42.7576),(Mg:11.6568),(Al:4.9062),(Si:21.1983),(Ca:10.8991),(Fe:7.742)
##DET_HASH   : 12273538-fd48-a23f-0a19-f1e6fa85caef
##CALIB_HASH : 6abaa72c-aa41-8738-0be9-f592914732f3
##WORKING    : 15.0 mm
##DET_NAME   : EDAX All
##DET_MODE   : MediumLE
#SPECTRUM    :
25,
220,
7506,
6849,
55383,
9949,
3061,
4023,
5158,
100772,
6974,
18309,
57868,
28177,
3812,
3136,
3883,
3262,
3195,
3162,
3114,
3018,
2930,
2896,
2793,
3151,
34033,
12354,
3670,
6966,
2138,
2061,
2077,
1948,
1769,
1809,
1708,
1669,
1610,
1693,
1436,
1543,
1584,
1292,
1408,
5263,
13771,
1342,
1143,
1187,
2612,
1721,
908,
982,
974,
882,
855,
830,
828,
797,
767,
779,
701,
688,
667,
664,
653,
569,
586,
600,
549,
496,
555,
480,
469,
431,
451,
379,
390,
390,
362,
348,
353,
298,
287,
302,
302,
314,
295,
246,
245,
237,
223,
225,
197,
224,
205,
164,
178,
158,
167,
162,
171,
149,
118,
107,
121,
104,
82,
96,
94,
75,
77,
71,
58,
67,
51,
57,
42,
52,
32,
35,
40,
33,
38,
38,
22,
27,
15,
18,
19,
9,
18,
11,
6,
9,
5,
5,
7,
9,
6,
1,
0,
0,
0,
0,
0,
0,
0,
0,
0,
0,
1,
0,
1,
0,
0,
0,
0,
0,
0,
0,
0,
0,
0,
0,
0,
0,
0,
0,
0,
0,
0,
0,
0,
0,
0,
0,
1,
0,
0,
0,
0,
0,
0,
0,
0,
0,
0,
0,
0,
0,
0,
0,
0,
0,
0,
0,
0,
0,
0,
0,
0,
0,
0,
0,
0,
0,
0,
0,
0,
0,
0,
0,
0,
0,
0,
0,
0,
0,
0,
0,
0,
0,
0,
0,
0,
0,
0,
0,
0,
0,
0,
0,
0,
0,
0,
0,
0,
0,
0,
0,
0,
0,
0,
0,
0,
0,
0,
0,
0,
0,
0,
0,
0,
0,
0,
0,
0,
0,
0,
0,
0,
0,
0,
0,
0,
0,
0,
0,
0,
0,
0,
0,
0,
0,
0,
0,
0,
0,
0,
0,
0,
0,
0,
0,
0,
0,
0,
0,
0,
0,
0,
0,
#ENDOFDATA   :