File: N132962/Quantification/20 keV/Glass Mount IIIB/GM IIIB K497[5][4].msa
#FORMAT      : EMSA/MAS Spectral Data File
#VERSION     : 1.0
#TITLE       : GM IIIB K497[5][all]
#DATE        : 11-SEP-2025
#TIME        : 09:43
#OWNER       : Unknown
#NPOINTS     : 4096
#NCOLUMNS    : 1
#XUNITS      : eV
#YUNITS      : counts
#DATATYPE    : Y
#XPERCHAN    : 9.99778
#OFFSET      : 1.69135
#BEAMKV      : 20
#SIGNALTYPE  : EDS
#ELEVANGLE   : 35
#AZIMANGLE   : 0
#LIVETIME    : 240.166
#REALTIME    : 258.916
#PROBECUR    : 1.22337
#TAUWIND     : 0
#TDEADLYR    : 0
#TACTLYR     : 0.045
#TALWIND     : 0.025
#CHOFFSET    : 0.0
#XLABEL      : Energy (eV)
#YLABEL      : Counts
#XPOSITION   : 12.90992
#YPOSITION   : 10.29446
#ZPOSITION   : 34.00162
#EDSDET      : SD
##SPECIMEN   : GM IIIB K497[5][all]
##D2STDCMP   : K497,(B:0.05),(O:52.45),(Mg:5.21),(Al:5.78),(Si:0.13),(P:33.18),(Ti:0.21),(Fe:0.24),(Zr:0.4),(Ce:0.62),(Ta:0.8),(Pb:0.92)
##DET_HASH   : 12273538-fd48-a23f-0a19-f1e6fa85caef
##CALIB_HASH : 6abaa72c-aa41-8738-0be9-f592914732f3
##WORKING    : 15.0 mm
##DET_NAME   : EDAX All
##DET_MODE   : MediumLE
#SPECTRUM    :
19,
342,
12388,
8994,
74292,
2881,
3296,
3953,
5027,
63982,
8337,
23659,
7517,
6938,
116397,
33087,
3303,
4156,
3611,
2747,
2601,
2658,
2510,
2497,
2474,
2466,
2663,
2292,
2191,
2448,
1961,
1880,
2712,
1849,
2027,
2251,
1637,
1627,
1678,
1490,
1524,
1405,
1278,
1298,
1168,
1332,
1642,
1089,
1092,
1029,
1095,
1016,
969,
950,
899,
814,
779,
808,
1064,
814,
674,
722,
691,
594,
617,
597,
619,
713,
578,
581,
534,
464,
480,
530,
441,
515,
475,
429,
425,
362,
332,
318,
304,
314,
295,
259,
276,
265,
249,
221,
269,
249,
203,
198,
184,
196,
158,
180,
154,
139,
124,
103,
144,
136,
101,
91,
107,
85,
74,
83,
71,
79,
70,
72,
53,
56,
52,
52,
46,
52,
35,
35,
31,
27,
20,
30,
19,
22,
28,
13,
13,
12,
11,
12,
10,
10,
6,
4,
4,
0,
2,
3,
0,
0,
0,
0,
0,
0,
0,
0,
0,
0,
0,
0,
0,
0,
0,
1,
0,
0,
1,
0,
0,
0,
0,
0,
0,
0,
0,
0,
0,
0,
0,
0,
0,
0,
0,
0,
0,
0,
0,
0,
0,
0,
0,
0,
0,
0,
0,
0,
0,
0,
0,
0,
0,
0,
0,
0,
0,
0,
0,
0,
0,
0,
0,
0,
0,
0,
0,
0,
0,
0,
0,
0,
0,
0,
0,
0,
0,
0,
0,
0,
0,
0,
0,
0,
0,
0,
0,
0,
0,
0,
0,
0,
0,
0,
0,
0,
0,
0,
0,
0,
0,
0,
0,
0,
0,
0,
0,
0,
0,
0,
0,
0,
0,
0,
0,
0,
0,
0,
0,
0,
0,
0,
0,
0,
0,
0,
0,
0,
0,
0,
0,
0,
0,
0,
0,
0,
0,
0,
0,
0,
0,
0,
0,
0,
0,
0,
0,
0,
0,
0,
0,
0,
#ENDOFDATA   :