File: N132962/Quantification/20 keV/Glass Mount IIIB/GM IIIB K1132[0][4].msa
#FORMAT      : EMSA/MAS Spectral Data File
#VERSION     : 1.0
#TITLE       : GM IIIB K1132[0][all]
#DATE        : 10-SEP-2025
#TIME        : 17:30
#OWNER       : Unknown
#NPOINTS     : 4096
#NCOLUMNS    : 1
#XUNITS      : eV
#YUNITS      : counts
#DATATYPE    : Y
#XPERCHAN    : 9.99778
#OFFSET      : 1.69135
#BEAMKV      : 20
#SIGNALTYPE  : EDS
#ELEVANGLE   : 35
#AZIMANGLE   : 0
#LIVETIME    : 240.14
#REALTIME    : 258.801
#PROBECUR    : 1.22427
#TAUWIND     : 0
#TDEADLYR    : 0
#TACTLYR     : 0.045
#TALWIND     : 0.025
#CHOFFSET    : 0.0
#XLABEL      : Energy (eV)
#YLABEL      : Counts
#XPOSITION   : 7.05082
#YPOSITION   : 16.28695
#ZPOSITION   : 34.06144
#EDSDET      : SD
##SPECIMEN   : GM IIIB K1132[0][all]
##D2STDCMP   : K1132,(Li:2.32),(O:41.34),(Al:7.94),(Si:21.39),(Ca:10.72),(Cr:0.51),(Ni:1.18),(Mo:1.67),(Ba:13.43)
##DET_HASH   : 12273538-fd48-a23f-0a19-f1e6fa85caef
##CALIB_HASH : 6abaa72c-aa41-8738-0be9-f592914732f3
##WORKING    : 15.0 mm
##DET_NAME   : EDAX All
##DET_MODE   : MediumLE
#SPECTRUM    :
24,
227,
7792,
7049,
55363,
3459,
6184,
4852,
4411,
5070,
9747,
28580,
58234,
28471,
4547,
3743,
6424,
6214,
4118,
3810,
3633,
3617,
3536,
3583,
3281,
3727,
34181,
12864,
4930,
7570,
2717,
3679,
21601,
2662,
5973,
7614,
2813,
4973,
2469,
3470,
2510,
2129,
1999,
1869,
1645,
1648,
1648,
1502,
1394,
1412,
1329,
1272,
1256,
2539,
1771,
1224,
1137,
1095,
1082,
1290,
1016,
975,
960,
913,
906,
847,
802,
758,
759,
831,
713,
742,
686,
614,
641,
595,
586,
537,
573,
560,
486,
488,
488,
414,
412,
413,
413,
364,
372,
347,
325,
338,
313,
301,
297,
262,
247,
236,
228,
233,
217,
191,
217,
178,
172,
152,
131,
163,
128,
137,
126,
93,
115,
110,
101,
76,
87,
79,
95,
67,
60,
66,
67,
60,
57,
60,
43,
26,
26,
32,
32,
34,
25,
20,
18,
9,
9,
13,
4,
6,
5,
7,
2,
1,
0,
0,
0,
0,
0,
0,
0,
0,
0,
0,
0,
0,
1,
0,
0,
0,
1,
0,
0,
0,
0,
0,
0,
0,
0,
0,
0,
0,
0,
0,
0,
0,
0,
0,
1,
0,
0,
0,
0,
0,
0,
0,
0,
0,
0,
0,
0,
0,
0,
0,
0,
0,
0,
0,
0,
0,
0,
0,
0,
0,
0,
0,
0,
0,
0,
0,
0,
0,
0,
0,
0,
0,
0,
0,
0,
0,
0,
0,
0,
0,
0,
0,
0,
0,
0,
0,
0,
0,
0,
0,
0,
0,
0,
0,
0,
0,
0,
0,
0,
0,
0,
0,
0,
0,
0,
0,
0,
0,
0,
0,
0,
0,
0,
0,
0,
0,
0,
0,
0,
0,
0,
0,
0,
0,
0,
0,
0,
0,
0,
0,
0,
0,
0,
0,
0,
0,
0,
0,
0,
0,
0,
0,
0,
0,
0,
0,
0,
0,
0,
0,
#ENDOFDATA   :