File: N132962/Quantification/20 keV/Glass Mount IIIB/GM IIIB K491[0][4].msa
#FORMAT      : EMSA/MAS Spectral Data File
#VERSION     : 1.0
#TITLE       : GM IIIB K491[0][all]
#DATE        : 10-SEP-2025
#TIME        : 15:10
#OWNER       : Unknown
#NPOINTS     : 4096
#NCOLUMNS    : 1
#XUNITS      : eV
#YUNITS      : counts
#DATATYPE    : Y
#XPERCHAN    : 9.99778
#OFFSET      : 1.69135
#BEAMKV      : 20
#SIGNALTYPE  : EDS
#ELEVANGLE   : 35
#AZIMANGLE   : 0
#LIVETIME    : 240.264
#REALTIME    : 266.797
#PROBECUR    : 1.22616
#TAUWIND     : 0
#TDEADLYR    : 0
#TACTLYR     : 0.045
#TALWIND     : 0.025
#CHOFFSET    : 0.0
#XLABEL      : Energy (eV)
#YLABEL      : Counts
#XPOSITION   : 4.01189
#YPOSITION   : 6.7894
#ZPOSITION   : 34.06144
#EDSDET      : SD
##SPECIMEN   : GM IIIB K491[0][all]
##D2STDCMP   : K491,(B:0.03),(O:16.65),(Al:0.08),(Si:0.09),(Ti:0.16),(Fe:0.18),(Ge:26.36),(Zr:0.3),(Ce:0.46),(Ta:0.59),(Pb:55.1)
##DET_HASH   : 12273538-fd48-a23f-0a19-f1e6fa85caef
##CALIB_HASH : 6abaa72c-aa41-8738-0be9-f592914732f3
##WORKING    : 15.0 mm
##DET_NAME   : EDAX All
##DET_MODE   : MediumLE
#SPECTRUM    :
29,
588,
11719,
7677,
24729,
9112,
8227,
10291,
25775,
37230,
8011,
8487,
10399,
17468,
9044,
9902,
17920,
130411,
23119,
12389,
5976,
6555,
7972,
6241,
5696,
5942,
5883,
5729,
5517,
5507,
5478,
5403,
6425,
5300,
5475,
5734,
5079,
5002,
5089,
4876,
4838,
4675,
4350,
4441,
4326,
4511,
4817,
4052,
4025,
3834,
3802,
3740,
3584,
3703,
3525,
3434,
3236,
3104,
3447,
3240,
2971,
2920,
2785,
2704,
2693,
2926,
3007,
2626,
2443,
2691,
13842,
13745,
2327,
2152,
3099,
11015,
6069,
2091,
3748,
3105,
1754,
1674,
1509,
1494,
1427,
1404,
1502,
1494,
1411,
1852,
4817,
2144,
1246,
1234,
1042,
943,
883,
810,
878,
818,
761,
715,
678,
680,
671,
884,
782,
561,
614,
552,
493,
434,
455,
417,
358,
351,
341,
351,
316,
273,
258,
271,
244,
223,
241,
209,
163,
165,
153,
152,
122,
131,
109,
100,
78,
91,
72,
57,
59,
45,
27,
33,
18,
9,
3,
5,
8,
2,
4,
2,
7,
3,
8,
6,
2,
2,
3,
7,
4,
5,
0,
3,
2,
0,
2,
1,
0,
5,
2,
3,
2,
4,
0,
2,
1,
3,
1,
3,
1,
1,
4,
1,
1,
1,
1,
0,
1,
2,
0,
1,
2,
1,
1,
2,
2,
0,
0,
1,
1,
1,
0,
0,
0,
0,
1,
0,
0,
0,
0,
0,
0,
0,
1,
0,
0,
0,
0,
0,
0,
0,
0,
1,
0,
0,
0,
0,
0,
0,
0,
0,
0,
0,
0,
0,
0,
0,
0,
0,
0,
0,
0,
0,
0,
0,
0,
0,
0,
0,
0,
0,
0,
0,
0,
0,
0,
0,
0,
0,
0,
0,
0,
0,
0,
0,
0,
0,
0,
0,
0,
0,
0,
0,
0,
0,
0,
0,
0,
0,
0,
0,
0,
0,
0,
0,
0,
0,
0,
0,
0,
0,
0,
0,
0,
0,
#ENDOFDATA   :