File: N132962/Quantification/20 keV/Glass Mount IIIB/GM IIIB K1132[1][4].msa
#FORMAT      : EMSA/MAS Spectral Data File
#VERSION     : 1.0
#TITLE       : GM IIIB K1132[1][all]
#DATE        : 10-SEP-2025
#TIME        : 17:31
#OWNER       : Unknown
#NPOINTS     : 4096
#NCOLUMNS    : 1
#XUNITS      : eV
#YUNITS      : counts
#DATATYPE    : Y
#XPERCHAN    : 9.99778
#OFFSET      : 1.69135
#BEAMKV      : 20
#SIGNALTYPE  : EDS
#ELEVANGLE   : 35
#AZIMANGLE   : 0
#LIVETIME    : 240.138
#REALTIME    : 258.7903
#PROBECUR    : 1.22427
#TAUWIND     : 0
#TDEADLYR    : 0
#TACTLYR     : 0.045
#TALWIND     : 0.025
#CHOFFSET    : 0.0
#XLABEL      : Energy (eV)
#YLABEL      : Counts
#XPOSITION   : 7.08303
#YPOSITION   : 16.32423
#ZPOSITION   : 34.06144
#EDSDET      : SD
##SPECIMEN   : GM IIIB K1132[1][all]
##D2STDCMP   : K1132,(Li:2.32),(O:41.34),(Al:7.94),(Si:21.39),(Ca:10.72),(Cr:0.51),(Ni:1.18),(Mo:1.67),(Ba:13.43)
##DET_HASH   : 12273538-fd48-a23f-0a19-f1e6fa85caef
##CALIB_HASH : 6abaa72c-aa41-8738-0be9-f592914732f3
##WORKING    : 15.0 mm
##DET_NAME   : EDAX All
##DET_MODE   : MediumLE
#SPECTRUM    :
12,
265,
7879,
7258,
55560,
3384,
6112,
4673,
4406,
5060,
9673,
28600,
57989,
28486,
4434,
3886,
6320,
6080,
4170,
3791,
3651,
3621,
3486,
3518,
3220,
3724,
33977,
12766,
4691,
7583,
2717,
3869,
21443,
2665,
5957,
7687,
2856,
5175,
2538,
3530,
2426,
2140,
2033,
1776,
1627,
1533,
1583,
1422,
1486,
1387,
1296,
1401,
1274,
2547,
1775,
1109,
1091,
1177,
1089,
1251,
954,
960,
946,
913,
879,
840,
828,
794,
775,
721,
688,
674,
705,
695,
650,
578,
582,
550,
560,
534,
474,
496,
496,
459,
385,
404,
404,
368,
377,
347,
331,
321,
300,
301,
277,
264,
255,
243,
248,
240,
217,
190,
206,
180,
148,
154,
154,
136,
149,
144,
123,
112,
101,
100,
72,
89,
81,
59,
79,
65,
57,
67,
53,
59,
48,
48,
40,
43,
33,
31,
35,
28,
16,
16,
14,
19,
13,
13,
15,
7,
5,
3,
3,
0,
1,
0,
1,
1,
0,
1,
0,
0,
0,
0,
0,
1,
1,
1,
0,
0,
0,
0,
0,
0,
0,
0,
0,
0,
0,
0,
0,
0,
0,
0,
1,
0,
0,
0,
0,
0,
0,
0,
0,
0,
0,
0,
0,
0,
0,
0,
0,
0,
0,
0,
0,
0,
0,
0,
0,
1,
1,
0,
0,
0,
0,
0,
0,
0,
0,
0,
0,
0,
0,
0,
0,
0,
0,
0,
0,
0,
0,
0,
0,
0,
0,
0,
0,
0,
0,
0,
0,
0,
0,
0,
0,
0,
0,
0,
0,
0,
0,
0,
0,
0,
0,
0,
0,
0,
0,
0,
0,
0,
0,
0,
0,
0,
0,
0,
0,
0,
0,
0,
0,
0,
0,
0,
0,
0,
0,
0,
0,
0,
0,
0,
0,
0,
0,
0,
0,
0,
0,
0,
0,
0,
0,
0,
0,
0,
0,
0,
0,
0,
0,
0,
#ENDOFDATA   :