File: N132962/Quantification/20 keV/Glass Mount IIIB/GM IIIB K493[2][4].msa
#FORMAT      : EMSA/MAS Spectral Data File
#VERSION     : 1.0
#TITLE       : GM IIIB K493[2][all]
#DATE        : 10-SEP-2025
#TIME        : 15:18
#OWNER       : Unknown
#NPOINTS     : 4096
#NCOLUMNS    : 1
#XUNITS      : eV
#YUNITS      : counts
#DATATYPE    : Y
#XPERCHAN    : 9.99778
#OFFSET      : 1.69135
#BEAMKV      : 20
#SIGNALTYPE  : EDS
#ELEVANGLE   : 35
#AZIMANGLE   : 0
#LIVETIME    : 240.3862
#REALTIME    : 267.497
#PROBECUR    : 1.22616
#TAUWIND     : 0
#TDEADLYR    : 0
#TACTLYR     : 0.045
#TALWIND     : 0.025
#CHOFFSET    : 0.0
#XLABEL      : Energy (eV)
#YLABEL      : Counts
#XPOSITION   : 1.81714
#YPOSITION   : 7.04484
#ZPOSITION   : 34.06144
#EDSDET      : SD
##SPECIMEN   : GM IIIB K493[2][all]
##D2STDCMP   : K493,(B:0.04),(O:20.63),(Al:0.11),(Si:13.04),(Ti:0.19),(Fe:0.22),(Zr:0.36),(Ce:0.55),(Ta:0.72),(Pb:64.13)
##DET_HASH   : 12273538-fd48-a23f-0a19-f1e6fa85caef
##CALIB_HASH : 6abaa72c-aa41-8738-0be9-f592914732f3
##WORKING    : 15.0 mm
##DET_NAME   : EDAX All
##DET_MODE   : MediumLE
#SPECTRUM    :
26,
574,
12067,
7432,
28350,
8592,
7240,
7575,
8460,
9419,
10301,
11945,
53634,
39456,
9343,
10257,
19889,
152461,
25888,
12753,
5532,
6107,
7592,
5837,
5434,
5576,
5371,
5325,
5229,
5426,
5257,
5079,
6179,
5113,
5359,
5467,
4795,
4851,
4715,
4448,
4607,
4459,
4277,
4155,
4075,
4152,
4729,
3884,
3799,
3673,
3808,
3502,
3412,
3608,
3493,
3273,
3114,
3084,
3306,
3012,
2879,
2659,
2722,
2687,
2535,
2914,
2966,
2451,
2417,
2332,
2169,
2106,
1972,
2009,
3080,
11908,
6356,
1940,
1748,
1657,
1712,
1609,
1575,
1537,
1377,
1282,
1406,
1490,
1375,
1973,
5304,
2308,
1282,
1142,
1013,
929,
875,
809,
797,
749,
718,
676,
704,
671,
603,
874,
759,
597,
595,
561,
491,
444,
395,
387,
335,
333,
349,
294,
293,
275,
262,
251,
263,
220,
180,
198,
178,
197,
139,
135,
123,
113,
115,
90,
92,
95,
63,
50,
47,
42,
28,
16,
15,
2,
4,
5,
4,
3,
4,
7,
4,
6,
4,
3,
0,
3,
2,
1,
2,
2,
2,
3,
0,
1,
0,
1,
5,
1,
3,
0,
0,
1,
1,
1,
3,
4,
3,
1,
1,
0,
1,
1,
0,
1,
0,
0,
0,
1,
0,
1,
2,
0,
0,
0,
2,
0,
0,
0,
0,
0,
1,
0,
0,
0,
0,
0,
0,
0,
0,
0,
0,
0,
0,
0,
0,
0,
0,
0,
0,
1,
0,
0,
0,
0,
0,
0,
0,
0,
0,
0,
0,
0,
0,
0,
0,
0,
0,
0,
0,
0,
0,
0,
0,
0,
0,
0,
0,
0,
0,
0,
0,
0,
0,
0,
0,
0,
0,
0,
0,
0,
0,
0,
0,
0,
0,
0,
0,
0,
0,
0,
0,
0,
0,
0,
0,
0,
0,
0,
0,
0,
0,
0,
0,
0,
0,
0,
0,
0,
0,
0,
0,
0,
0,
0,
#ENDOFDATA   :