File: N132962/Quantification/20 keV/Glass Mount IIIB/GM IIIB K373[3][4].msa
#FORMAT      : EMSA/MAS Spectral Data File
#VERSION     : 1.0
#TITLE       : GM IIIB K373[3][all]
#DATE        : 10-SEP-2025
#TIME        : 18:15
#OWNER       : Unknown
#NPOINTS     : 4096
#NCOLUMNS    : 1
#XUNITS      : eV
#YUNITS      : counts
#DATATYPE    : Y
#XPERCHAN    : 9.99778
#OFFSET      : 1.69135
#BEAMKV      : 20
#SIGNALTYPE  : EDS
#ELEVANGLE   : 35
#AZIMANGLE   : 0
#LIVETIME    : 240.199
#REALTIME    : 260.193
#PROBECUR    : 1.22475
#TAUWIND     : 0
#TDEADLYR    : 0
#TACTLYR     : 0.045
#TALWIND     : 0.025
#CHOFFSET    : 0.0
#XLABEL      : Energy (eV)
#YLABEL      : Counts
#XPOSITION   : 4.41407
#YPOSITION   : 2.30917
#ZPOSITION   : 34.00159
#EDSDET      : SD
##SPECIMEN   : GM IIIB K373[3][all]
##D2STDCMP   : K373,(O:42.34),(Na:10.43),(Si:31.85),(Zn:4.94),(Ba:10.38),(U:0.05)
##DET_HASH   : 12273538-fd48-a23f-0a19-f1e6fa85caef
##CALIB_HASH : 6abaa72c-aa41-8738-0be9-f592914732f3
##WORKING    : 15.0 mm
##DET_NAME   : EDAX All
##DET_MODE   : MediumLE
#SPECTRUM    :
23,
271,
5753,
10469,
82844,
3441,
4470,
25916,
6345,
4044,
4907,
6336,
90085,
42461,
3172,
3249,
4284,
3362,
3314,
3424,
3476,
3205,
3122,
3077,
3025,
3537,
2841,
2717,
2978,
2647,
2389,
3378,
17639,
2485,
5049,
6339,
2592,
4327,
1876,
2207,
2208,
1977,
1771,
1625,
1528,
1436,
1459,
1387,
1305,
1295,
1318,
1189,
1187,
1203,
1116,
999,
1069,
1031,
973,
923,
873,
2811,
4159,
887,
796,
739,
812,
798,
1202,
900,
660,
631,
615,
592,
585,
549,
538,
559,
536,
440,
472,
436,
412,
424,
380,
338,
370,
326,
354,
350,
335,
275,
285,
273,
268,
254,
233,
195,
199,
213,
199,
166,
168,
156,
155,
130,
132,
142,
104,
113,
120,
110,
86,
95,
92,
83,
75,
63,
71,
45,
62,
44,
46,
60,
35,
36,
33,
28,
30,
22,
30,
22,
29,
17,
17,
18,
13,
8,
8,
6,
6,
4,
1,
1,
0,
1,
0,
0,
0,
0,
1,
2,
1,
1,
1,
0,
0,
1,
0,
1,
2,
0,
0,
0,
0,
0,
1,
0,
0,
0,
0,
0,
0,
1,
0,
0,
0,
0,
0,
0,
0,
0,
0,
1,
0,
0,
0,
0,
0,
0,
0,
0,
0,
0,
0,
0,
0,
0,
0,
0,
0,
0,
0,
0,
0,
0,
0,
0,
0,
0,
0,
0,
0,
0,
0,
0,
0,
0,
0,
0,
0,
0,
0,
0,
0,
0,
0,
0,
0,
0,
0,
0,
0,
0,
0,
0,
0,
0,
0,
0,
0,
0,
0,
0,
0,
0,
0,
0,
0,
0,
0,
0,
0,
0,
0,
0,
0,
0,
0,
0,
0,
0,
0,
0,
0,
0,
0,
0,
0,
0,
0,
0,
0,
0,
0,
0,
0,
0,
0,
0,
0,
0,
0,
0,
0,
0,
0,
0,
0,
0,
0,
0,
0,
0,
#ENDOFDATA   :