File: N132962/Quantification/20 keV/Glass Mount IIIB/GM IIIB K1132[4][4].msa
#FORMAT      : EMSA/MAS Spectral Data File
#VERSION     : 1.0
#TITLE       : GM IIIB K1132[4][all]
#DATE        : 10-SEP-2025
#TIME        : 17:35
#OWNER       : Unknown
#NPOINTS     : 4096
#NCOLUMNS    : 1
#XUNITS      : eV
#YUNITS      : counts
#DATATYPE    : Y
#XPERCHAN    : 9.99778
#OFFSET      : 1.69135
#BEAMKV      : 20
#SIGNALTYPE  : EDS
#ELEVANGLE   : 35
#AZIMANGLE   : 0
#LIVETIME    : 240.094
#REALTIME    : 258.737
#PROBECUR    : 1.22427
#TAUWIND     : 0
#TDEADLYR    : 0
#TACTLYR     : 0.045
#TALWIND     : 0.025
#CHOFFSET    : 0.0
#XLABEL      : Energy (eV)
#YLABEL      : Counts
#XPOSITION   : 7.10243
#YPOSITION   : 16.28055
#ZPOSITION   : 34.06144
#EDSDET      : SD
##SPECIMEN   : GM IIIB K1132[4][all]
##D2STDCMP   : K1132,(Li:2.32),(O:41.34),(Al:7.94),(Si:21.39),(Ca:10.72),(Cr:0.51),(Ni:1.18),(Mo:1.67),(Ba:13.43)
##DET_HASH   : 12273538-fd48-a23f-0a19-f1e6fa85caef
##CALIB_HASH : 6abaa72c-aa41-8738-0be9-f592914732f3
##WORKING    : 15.0 mm
##DET_NAME   : EDAX All
##DET_MODE   : MediumLE
#SPECTRUM    :
20,
221,
8195,
7115,
55331,
3660,
6182,
4750,
4432,
5035,
9804,
28549,
58413,
28240,
4485,
3915,
6104,
6178,
3986,
3859,
3696,
3469,
3397,
3487,
3393,
3729,
34696,
12919,
4813,
7524,
2672,
3702,
21710,
2608,
5799,
7578,
2775,
5031,
2432,
3360,
2430,
2127,
1966,
1740,
1574,
1622,
1620,
1505,
1451,
1348,
1354,
1310,
1243,
2628,
1782,
1119,
1154,
1108,
1005,
1316,
1064,
991,
927,
903,
878,
825,
760,
755,
754,
722,
765,
719,
688,
654,
661,
635,
554,
535,
546,
527,
529,
467,
490,
471,
439,
410,
358,
405,
344,
370,
323,
363,
306,
305,
259,
262,
275,
252,
238,
214,
238,
205,
169,
178,
159,
180,
175,
155,
152,
132,
123,
108,
135,
114,
90,
87,
82,
78,
79,
71,
51,
56,
61,
52,
36,
28,
39,
44,
44,
29,
24,
27,
23,
28,
17,
18,
9,
15,
9,
7,
3,
5,
1,
1,
3,
2,
1,
0,
0,
1,
0,
0,
0,
0,
0,
0,
0,
0,
0,
0,
0,
0,
0,
0,
0,
0,
0,
0,
0,
0,
0,
0,
0,
0,
1,
0,
0,
0,
0,
0,
0,
0,
0,
1,
0,
0,
0,
0,
0,
0,
0,
0,
0,
0,
0,
0,
0,
0,
0,
0,
0,
0,
0,
0,
0,
0,
0,
0,
0,
0,
0,
0,
0,
0,
0,
0,
0,
0,
0,
1,
0,
0,
0,
0,
0,
0,
0,
0,
0,
0,
0,
0,
0,
0,
0,
0,
0,
0,
0,
0,
0,
0,
0,
0,
0,
0,
0,
0,
0,
0,
0,
0,
0,
0,
0,
0,
0,
0,
0,
0,
0,
0,
0,
0,
0,
0,
0,
0,
0,
0,
0,
0,
0,
0,
0,
0,
0,
0,
0,
0,
0,
0,
0,
0,
0,
0,
0,
0,
0,
0,
0,
0,
0,
0,
#ENDOFDATA   :