File: N132962/Quantification/20 keV/Glass Mount IIIB/GM IIIB K408[1][4].msa
#FORMAT      : EMSA/MAS Spectral Data File
#VERSION     : 1.0
#TITLE       : GM IIIB K408[1][all]
#DATE        : 10-SEP-2025
#TIME        : 14:35
#OWNER       : Unknown
#NPOINTS     : 4096
#NCOLUMNS    : 1
#XUNITS      : eV
#YUNITS      : counts
#DATATYPE    : Y
#XPERCHAN    : 9.99778
#OFFSET      : 1.69135
#BEAMKV      : 20
#SIGNALTYPE  : EDS
#ELEVANGLE   : 35
#AZIMANGLE   : 0
#LIVETIME    : 240.212
#REALTIME    : 266.6666
#PROBECUR    : 1.22592
#TAUWIND     : 0
#TDEADLYR    : 0
#TACTLYR     : 0.045
#TALWIND     : 0.025
#CHOFFSET    : 0.0
#XLABEL      : Energy (eV)
#YLABEL      : Counts
#XPOSITION   : 9.56988
#YPOSITION   : 4.79688
#ZPOSITION   : 34.06144
#EDSDET      : SD
##SPECIMEN   : GM IIIB K408[1][all]
##D2STDCMP   : K408,(O:21.32),(Si:14.02),(Eu:4.32),(Pb:60.34)
##DET_HASH   : 12273538-fd48-a23f-0a19-f1e6fa85caef
##CALIB_HASH : 6abaa72c-aa41-8738-0be9-f592914732f3
##WORKING    : 15.0 mm
##DET_NAME   : EDAX All
##DET_MODE   : MediumLE
#SPECTRUM    :
22,
553,
12256,
7425,
29298,
8047,
7666,
7619,
11738,
9082,
10083,
10800,
52113,
38260,
8676,
9028,
18483,
142720,
24205,
12118,
5405,
5891,
7477,
5522,
5364,
5663,
5214,
5259,
5093,
5303,
5102,
4943,
5578,
4944,
5030,
4975,
4642,
4596,
4561,
4475,
4375,
5120,
7451,
4122,
3959,
4056,
6003,
4289,
3832,
4315,
3595,
3438,
3259,
3598,
3362,
3102,
3036,
3047,
2873,
2822,
2682,
2675,
2612,
2483,
2555,
2754,
2748,
2253,
2253,
2115,
2122,
2154,
2053,
2016,
2960,
11155,
5908,
1762,
1686,
1599,
1569,
1581,
1480,
1474,
1330,
1375,
1319,
1416,
1417,
1846,
5037,
2242,
1218,
1249,
945,
880,
866,
820,
755,
733,
690,
706,
662,
656,
645,
867,
714,
568,
583,
466,
465,
450,
386,
404,
352,
312,
349,
297,
276,
280,
231,
246,
195,
215,
198,
161,
176,
165,
140,
131,
109,
111,
100,
98,
70,
67,
50,
48,
40,
42,
32,
17,
10,
3,
3,
3,
3,
2,
3,
0,
1,
2,
5,
1,
3,
1,
2,
4,
1,
3,
3,
3,
3,
2,
0,
1,
2,
1,
1,
2,
0,
3,
1,
1,
0,
1,
2,
2,
2,
1,
1,
3,
0,
1,
0,
0,
0,
1,
1,
0,
0,
1,
0,
0,
0,
0,
1,
0,
0,
1,
1,
0,
0,
1,
1,
0,
0,
0,
0,
0,
1,
0,
0,
0,
0,
0,
0,
0,
0,
0,
0,
0,
0,
0,
1,
1,
0,
0,
1,
0,
0,
0,
0,
0,
0,
0,
0,
0,
0,
0,
0,
0,
0,
0,
0,
0,
0,
0,
0,
0,
0,
0,
0,
0,
0,
0,
0,
0,
0,
0,
0,
0,
0,
0,
0,
0,
0,
0,
0,
0,
0,
0,
0,
0,
0,
0,
0,
0,
0,
0,
0,
0,
0,
0,
0,
0,
0,
0,
0,
0,
0,
0,
0,
0,
#ENDOFDATA   :