File: N132962/Quantification/20 keV/Glass Mount IIIB/GM IIIB K408[2][4].msa
#FORMAT      : EMSA/MAS Spectral Data File
#VERSION     : 1.0
#TITLE       : GM IIIB K408[2][all]
#DATE        : 10-SEP-2025
#TIME        : 14:36
#OWNER       : Unknown
#NPOINTS     : 4096
#NCOLUMNS    : 1
#XUNITS      : eV
#YUNITS      : counts
#DATATYPE    : Y
#XPERCHAN    : 9.99778
#OFFSET      : 1.69135
#BEAMKV      : 20
#SIGNALTYPE  : EDS
#ELEVANGLE   : 35
#AZIMANGLE   : 0
#LIVETIME    : 240.249
#REALTIME    : 266.724
#PROBECUR    : 1.22592
#TAUWIND     : 0
#TDEADLYR    : 0
#TACTLYR     : 0.045
#TALWIND     : 0.025
#CHOFFSET    : 0.0
#XLABEL      : Energy (eV)
#YLABEL      : Counts
#XPOSITION   : 9.63788
#YPOSITION   : 4.81892
#ZPOSITION   : 34.06144
#EDSDET      : SD
##SPECIMEN   : GM IIIB K408[2][all]
##D2STDCMP   : K408,(O:21.32),(Si:14.02),(Eu:4.32),(Pb:60.34)
##DET_HASH   : 12273538-fd48-a23f-0a19-f1e6fa85caef
##CALIB_HASH : 6abaa72c-aa41-8738-0be9-f592914732f3
##WORKING    : 15.0 mm
##DET_NAME   : EDAX All
##DET_MODE   : MediumLE
#SPECTRUM    :
20,
531,
12167,
7613,
29489,
8082,
7755,
7715,
11752,
9413,
9964,
10894,
52916,
38369,
8774,
8938,
18487,
142738,
24138,
12270,
5449,
6045,
7497,
5660,
5215,
5616,
5300,
5323,
5074,
5245,
5211,
4988,
5538,
4962,
4994,
4873,
4635,
4708,
4342,
4458,
4405,
5086,
7374,
4150,
4104,
4022,
5942,
4189,
3851,
4229,
3550,
3404,
3328,
3652,
3291,
3258,
3003,
2867,
2882,
2750,
2701,
2593,
2602,
2527,
2418,
2679,
2726,
2364,
2205,
2095,
2117,
2136,
2041,
2044,
3015,
11127,
6061,
1759,
1694,
1619,
1583,
1507,
1427,
1374,
1353,
1369,
1362,
1367,
1309,
1881,
5043,
2190,
1220,
1218,
995,
886,
786,
798,
785,
699,
712,
731,
640,
603,
617,
834,
701,
546,
576,
496,
466,
406,
366,
390,
353,
310,
307,
284,
291,
287,
251,
260,
234,
201,
176,
172,
162,
161,
149,
123,
117,
119,
84,
91,
79,
71,
64,
50,
46,
32,
23,
24,
8,
8,
4,
0,
3,
2,
2,
1,
2,
4,
3,
1,
2,
2,
1,
1,
2,
3,
3,
5,
1,
1,
2,
0,
2,
1,
1,
3,
0,
1,
1,
0,
1,
3,
2,
0,
0,
2,
0,
0,
0,
0,
0,
1,
0,
2,
0,
0,
0,
0,
0,
0,
0,
0,
1,
1,
0,
0,
1,
1,
0,
0,
0,
0,
0,
0,
2,
0,
0,
0,
2,
0,
0,
0,
0,
1,
1,
2,
0,
0,
0,
0,
0,
1,
0,
0,
0,
0,
0,
0,
0,
0,
0,
0,
0,
0,
0,
0,
0,
0,
0,
0,
0,
0,
0,
0,
0,
0,
0,
0,
0,
0,
0,
0,
0,
0,
0,
0,
0,
0,
0,
0,
0,
0,
0,
0,
0,
0,
0,
0,
0,
0,
0,
0,
0,
0,
0,
0,
0,
0,
0,
0,
0,
0,
0,
0,
0,
0,
0,
0,
0,
0,
#ENDOFDATA   :