File: N132962/Quantification/20 keV/Glass Mount IIIB/GM IIIB K873[4][4].msa
#FORMAT      : EMSA/MAS Spectral Data File
#VERSION     : 1.0
#TITLE       : GM IIIB K873[4][all]
#DATE        : 10-SEP-2025
#TIME        : 15:32
#OWNER       : Unknown
#NPOINTS     : 4096
#NCOLUMNS    : 1
#XUNITS      : eV
#YUNITS      : counts
#DATATYPE    : Y
#XPERCHAN    : 9.99778
#OFFSET      : 1.69135
#BEAMKV      : 20
#SIGNALTYPE  : EDS
#ELEVANGLE   : 35
#AZIMANGLE   : 0
#LIVETIME    : 240.1939
#REALTIME    : 262.511
#PROBECUR    : 1.22616
#TAUWIND     : 0
#TDEADLYR    : 0
#TACTLYR     : 0.045
#TALWIND     : 0.025
#CHOFFSET    : 0.0
#XLABEL      : Energy (eV)
#YLABEL      : Counts
#XPOSITION   : -2.51374
#YPOSITION   : 9.59916
#ZPOSITION   : 34.06144
#EDSDET      : SD
##SPECIMEN   : GM IIIB K873[4][all]
##D2STDCMP   : K873,(O:25.46),(Al:0.26),(Si:11.45),(Mn:0.32),(Ge:17.0),(Ba:21.94),(Ce:0.41),(Ta:0.41),(Pb:22.74)
##DET_HASH   : 12273538-fd48-a23f-0a19-f1e6fa85caef
##CALIB_HASH : 6abaa72c-aa41-8738-0be9-f592914732f3
##WORKING    : 15.0 mm
##DET_NAME   : EDAX All
##DET_MODE   : MediumLE
#SPECTRUM    :
23,
405,
9247,
8631,
44503,
6950,
6636,
8400,
15120,
21569,
6340,
7613,
33925,
21683,
6264,
6455,
10014,
49187,
11451,
8533,
5431,
5773,
6280,
5272,
5194,
5201,
4900,
4999,
5734,
4900,
4769,
6800,
38514,
4993,
10879,
14317,
5178,
9478,
4088,
4750,
4679,
4218,
4609,
3390,
3167,
3183,
3372,
2978,
2927,
2714,
2807,
2609,
2491,
2580,
2509,
2334,
2246,
2375,
2456,
2279,
2059,
2010,
2004,
1922,
1887,
1936,
2030,
1855,
1719,
1898,
8259,
8264,
1670,
1443,
1764,
4788,
2802,
1470,
2430,
1942,
1163,
1121,
1096,
1040,
978,
913,
956,
947,
921,
1115,
2017,
1164,
804,
749,
652,
628,
641,
581,
566,
506,
524,
478,
443,
484,
485,
519,
457,
375,
410,
319,
313,
313,
263,
272,
258,
227,
215,
189,
209,
189,
179,
160,
164,
136,
133,
134,
122,
116,
99,
99,
75,
68,
66,
65,
62,
42,
39,
39,
30,
8,
12,
18,
5,
4,
1,
1,
3,
3,
2,
3,
2,
2,
2,
3,
1,
0,
0,
2,
2,
3,
1,
2,
4,
1,
0,
3,
0,
3,
1,
0,
0,
2,
0,
0,
1,
0,
0,
0,
1,
0,
0,
0,
1,
0,
0,
0,
1,
0,
0,
0,
0,
0,
0,
0,
0,
0,
1,
0,
1,
0,
0,
0,
0,
0,
1,
1,
1,
0,
0,
0,
0,
0,
0,
0,
0,
0,
0,
0,
0,
0,
0,
1,
0,
0,
0,
0,
0,
0,
0,
0,
0,
0,
0,
0,
0,
0,
0,
0,
0,
0,
0,
0,
0,
0,
0,
0,
0,
0,
0,
0,
0,
0,
0,
0,
0,
0,
0,
0,
0,
0,
0,
0,
0,
0,
0,
0,
0,
0,
0,
0,
0,
0,
0,
0,
0,
0,
0,
0,
0,
0,
0,
0,
0,
0,
0,
0,
0,
0,
0,
0,
0,
0,
0,
0,
#ENDOFDATA   :