File: N132962/Quantification/20 keV/Glass Mount IIIB/GM IIIB K493[0][4].msa
#FORMAT      : EMSA/MAS Spectral Data File
#VERSION     : 1.0
#TITLE       : GM IIIB K493[0][all]
#DATE        : 10-SEP-2025
#TIME        : 15:16
#OWNER       : Unknown
#NPOINTS     : 4096
#NCOLUMNS    : 1
#XUNITS      : eV
#YUNITS      : counts
#DATATYPE    : Y
#XPERCHAN    : 9.99778
#OFFSET      : 1.69135
#BEAMKV      : 20
#SIGNALTYPE  : EDS
#ELEVANGLE   : 35
#AZIMANGLE   : 0
#LIVETIME    : 240.437
#REALTIME    : 267.559
#PROBECUR    : 1.22616
#TAUWIND     : 0
#TDEADLYR    : 0
#TACTLYR     : 0.045
#TALWIND     : 0.025
#CHOFFSET    : 0.0
#XLABEL      : Energy (eV)
#YLABEL      : Counts
#XPOSITION   : 1.69358
#YPOSITION   : 7.00159
#ZPOSITION   : 34.06144
#EDSDET      : SD
##SPECIMEN   : GM IIIB K493[0][all]
##D2STDCMP   : K493,(B:0.04),(O:20.63),(Al:0.11),(Si:13.04),(Ti:0.19),(Fe:0.22),(Zr:0.36),(Ce:0.55),(Ta:0.72),(Pb:64.13)
##DET_HASH   : 12273538-fd48-a23f-0a19-f1e6fa85caef
##CALIB_HASH : 6abaa72c-aa41-8738-0be9-f592914732f3
##WORKING    : 15.0 mm
##DET_NAME   : EDAX All
##DET_MODE   : MediumLE
#SPECTRUM    :
18,
514,
12100,
7459,
28532,
8560,
7081,
7747,
8401,
9577,
10386,
11623,
53508,
39408,
9235,
10164,
20033,
153452,
25636,
12869,
5555,
6300,
7691,
5744,
5388,
5586,
5329,
5526,
5055,
5384,
5262,
5100,
6348,
5162,
5450,
5405,
4651,
4692,
4795,
4425,
4611,
4336,
4245,
4180,
4138,
4259,
4641,
3804,
3753,
3692,
3621,
3505,
3317,
3631,
3304,
3229,
3062,
2995,
3284,
3018,
2784,
2742,
2707,
2631,
2468,
2802,
2886,
2495,
2386,
2355,
2145,
2207,
2052,
2028,
3053,
11916,
6414,
1902,
1744,
1703,
1686,
1593,
1545,
1461,
1367,
1310,
1406,
1436,
1377,
1924,
5332,
2296,
1213,
1233,
935,
863,
890,
799,
819,
763,
743,
690,
695,
647,
599,
908,
762,
558,
557,
506,
428,
412,
397,
417,
388,
346,
313,
287,
271,
315,
263,
247,
252,
225,
211,
200,
197,
177,
174,
133,
120,
104,
90,
93,
76,
71,
74,
61,
47,
34,
26,
20,
8,
7,
3,
7,
4,
1,
2,
3,
8,
2,
3,
2,
1,
1,
1,
1,
1,
2,
1,
3,
1,
5,
1,
3,
3,
3,
1,
2,
1,
2,
2,
2,
1,
1,
3,
1,
2,
1,
1,
1,
2,
0,
0,
1,
1,
2,
0,
0,
1,
0,
1,
0,
0,
0,
0,
2,
0,
1,
0,
1,
1,
1,
1,
0,
0,
1,
0,
1,
0,
1,
1,
0,
0,
0,
0,
0,
0,
0,
0,
0,
0,
0,
0,
0,
0,
0,
0,
0,
0,
0,
0,
0,
0,
0,
0,
0,
0,
0,
0,
0,
0,
0,
0,
0,
0,
0,
0,
0,
0,
0,
0,
0,
0,
0,
0,
0,
0,
0,
0,
0,
0,
0,
0,
0,
0,
0,
0,
0,
0,
0,
0,
0,
0,
0,
0,
0,
0,
0,
0,
0,
0,
0,
0,
0,
0,
0,
0,
0,
0,
0,
0,
0,
#ENDOFDATA   :