File: N132962/Quantification/20 keV/Glass Mount IIIB/GM IIIB K497[3][4].msa
#FORMAT      : EMSA/MAS Spectral Data File
#VERSION     : 1.0
#TITLE       : GM IIIB K497[3][all]
#DATE        : 11-SEP-2025
#TIME        : 09:41
#OWNER       : Unknown
#NPOINTS     : 4096
#NCOLUMNS    : 1
#XUNITS      : eV
#YUNITS      : counts
#DATATYPE    : Y
#XPERCHAN    : 9.99778
#OFFSET      : 1.69135
#BEAMKV      : 20
#SIGNALTYPE  : EDS
#ELEVANGLE   : 35
#AZIMANGLE   : 0
#LIVETIME    : 240.131
#REALTIME    : 258.868
#PROBECUR    : 1.22303
#TAUWIND     : 0
#TDEADLYR    : 0
#TACTLYR     : 0.045
#TALWIND     : 0.025
#CHOFFSET    : 0.0
#XLABEL      : Energy (eV)
#YLABEL      : Counts
#XPOSITION   : 12.9481
#YPOSITION   : 10.27219
#ZPOSITION   : 34.00161
#EDSDET      : SD
##SPECIMEN   : GM IIIB K497[3][all]
##D2STDCMP   : K497,(B:0.05),(O:52.45),(Mg:5.21),(Al:5.78),(Si:0.13),(P:33.18),(Ti:0.21),(Fe:0.24),(Zr:0.4),(Ce:0.62),(Ta:0.8),(Pb:0.92)
##DET_HASH   : 12273538-fd48-a23f-0a19-f1e6fa85caef
##CALIB_HASH : 6abaa72c-aa41-8738-0be9-f592914732f3
##WORKING    : 15.0 mm
##DET_NAME   : EDAX All
##DET_MODE   : MediumLE
#SPECTRUM    :
32,
280,
10223,
9233,
76854,
3078,
3323,
4048,
5028,
63558,
8270,
23485,
7514,
6997,
115587,
33470,
3324,
4191,
3717,
2776,
2531,
2607,
2422,
2567,
2482,
2440,
2594,
2258,
2125,
2441,
1896,
1840,
2604,
1855,
1978,
2183,
1568,
1599,
1713,
1513,
1549,
1254,
1279,
1295,
1262,
1289,
1659,
1117,
1015,
990,
1099,
947,
867,
986,
931,
839,
886,
730,
1085,
763,
716,
679,
702,
623,
666,
584,
617,
645,
539,
579,
530,
480,
412,
431,
457,
553,
442,
404,
425,
331,
333,
340,
337,
285,
285,
272,
242,
281,
235,
244,
254,
247,
188,
190,
157,
183,
156,
164,
156,
139,
138,
117,
120,
133,
115,
92,
82,
84,
86,
80,
64,
64,
66,
55,
58,
56,
46,
43,
41,
46,
41,
31,
32,
37,
26,
28,
18,
20,
6,
12,
12,
9,
11,
11,
14,
6,
5,
9,
3,
2,
2,
2,
1,
0,
0,
1,
0,
0,
0,
0,
0,
0,
0,
0,
0,
0,
0,
0,
0,
0,
0,
0,
0,
0,
0,
0,
1,
0,
0,
0,
0,
0,
0,
1,
0,
0,
0,
0,
0,
0,
0,
0,
0,
0,
0,
0,
0,
0,
0,
0,
0,
0,
0,
0,
0,
0,
0,
0,
0,
0,
0,
0,
0,
0,
0,
0,
0,
0,
0,
0,
0,
0,
0,
0,
0,
0,
0,
0,
0,
0,
0,
0,
0,
0,
0,
0,
0,
0,
0,
0,
0,
0,
0,
0,
0,
0,
0,
0,
0,
0,
0,
0,
0,
0,
0,
0,
0,
0,
0,
0,
0,
0,
0,
0,
0,
0,
0,
0,
0,
0,
0,
0,
0,
0,
0,
0,
0,
0,
0,
0,
0,
0,
0,
0,
0,
0,
0,
0,
0,
0,
0,
0,
0,
0,
0,
0,
0,
0,
0,
0,
0,
0,
0,
0,
#ENDOFDATA   :