File: N132962/Quantification/20 keV/Glass Mount IIIB/GM IIIB K508[1][4].msa
#FORMAT      : EMSA/MAS Spectral Data File
#VERSION     : 1.0
#TITLE       : GM IIIB K508[1][all]
#DATE        : 11-SEP-2025
#TIME        : 09:30
#OWNER       : Unknown
#NPOINTS     : 4096
#NCOLUMNS    : 1
#XUNITS      : eV
#YUNITS      : counts
#DATATYPE    : Y
#XPERCHAN    : 9.99778
#OFFSET      : 1.69135
#BEAMKV      : 20
#SIGNALTYPE  : EDS
#ELEVANGLE   : 35
#AZIMANGLE   : 0
#LIVETIME    : 240.052
#REALTIME    : 258.84
#PROBECUR    : 1.22303
#TAUWIND     : 0
#TDEADLYR    : 0
#TACTLYR     : 0.045
#TALWIND     : 0.025
#CHOFFSET    : 0.0
#XLABEL      : Energy (eV)
#YLABEL      : Counts
#XPOSITION   : 8.56472
#YPOSITION   : 9.63677
#ZPOSITION   : 34.00161
#EDSDET      : SD
##SPECIMEN   : GM IIIB K508[1][all]
##D2STDCMP   : K508,(B:9.26),(O:41.14),(Si:12.06),(Sr:37.54)
##DET_HASH   : 12273538-fd48-a23f-0a19-f1e6fa85caef
##CALIB_HASH : 6abaa72c-aa41-8738-0be9-f592914732f3
##WORKING    : 15.0 mm
##DET_NAME   : EDAX All
##DET_MODE   : MediumLE
#SPECTRUM    :
25,
775,
6699,
6179,
42369,
4102,
4245,
4965,
5725,
6553,
7203,
11954,
52465,
225513,
13856,
3428,
4130,
3634,
3311,
3417,
3360,
3423,
3375,
3364,
3378,
3528,
3759,
3209,
2966,
2866,
2806,
2788,
2977,
2631,
2483,
2533,
2356,
2246,
2260,
2202,
2023,
1958,
1926,
1873,
1879,
1889,
1850,
1670,
1682,
1627,
1479,
1528,
1477,
1490,
1430,
1318,
1226,
1223,
1283,
1218,
1175,
1078,
1133,
969,
1026,
998,
921,
930,
891,
908,
820,
794,
807,
754,
713,
748,
643,
638,
593,
683,
576,
564,
551,
543,
483,
450,
431,
490,
455,
404,
395,
376,
353,
378,
303,
313,
315,
267,
283,
283,
833,
1910,
595,
197,
208,
173,
153,
164,
174,
181,
156,
156,
195,
343,
175,
126,
93,
83,
85,
80,
68,
70,
57,
54,
58,
46,
63,
46,
36,
36,
34,
21,
35,
19,
25,
17,
11,
8,
4,
7,
11,
8,
2,
1,
0,
0,
0,
0,
0,
0,
0,
0,
1,
2,
0,
0,
0,
0,
0,
1,
1,
0,
0,
0,
0,
0,
0,
0,
0,
0,
1,
0,
0,
0,
0,
0,
0,
0,
0,
0,
1,
0,
0,
0,
0,
0,
0,
0,
0,
0,
0,
0,
0,
0,
0,
0,
0,
0,
0,
1,
0,
0,
0,
0,
1,
0,
0,
0,
0,
0,
0,
0,
0,
0,
0,
0,
0,
0,
0,
1,
0,
0,
0,
0,
0,
0,
0,
1,
0,
0,
0,
0,
0,
0,
0,
0,
0,
0,
0,
0,
0,
0,
0,
0,
0,
0,
0,
0,
0,
0,
0,
0,
0,
0,
0,
0,
0,
0,
0,
0,
0,
0,
0,
0,
0,
0,
0,
0,
0,
0,
0,
0,
0,
0,
0,
0,
0,
0,
0,
0,
0,
0,
0,
0,
0,
0,
0,
0,
0,
0,
0,
0,
0,
0,
#ENDOFDATA   :