File: N132962/Quantification/20 keV/Glass Mount IIIB/GM IIIB K493[1][4].msa
#FORMAT      : EMSA/MAS Spectral Data File
#VERSION     : 1.0
#TITLE       : GM IIIB K493[1][all]
#DATE        : 10-SEP-2025
#TIME        : 15:17
#OWNER       : Unknown
#NPOINTS     : 4096
#NCOLUMNS    : 1
#XUNITS      : eV
#YUNITS      : counts
#DATATYPE    : Y
#XPERCHAN    : 9.99778
#OFFSET      : 1.69135
#BEAMKV      : 20
#SIGNALTYPE  : EDS
#ELEVANGLE   : 35
#AZIMANGLE   : 0
#LIVETIME    : 240.382
#REALTIME    : 267.492
#PROBECUR    : 1.22616
#TAUWIND     : 0
#TDEADLYR    : 0
#TACTLYR     : 0.045
#TALWIND     : 0.025
#CHOFFSET    : 0.0
#XLABEL      : Energy (eV)
#YLABEL      : Counts
#XPOSITION   : 1.59679
#YPOSITION   : 6.97482
#ZPOSITION   : 34.06144
#EDSDET      : SD
##SPECIMEN   : GM IIIB K493[1][all]
##D2STDCMP   : K493,(B:0.04),(O:20.63),(Al:0.11),(Si:13.04),(Ti:0.19),(Fe:0.22),(Zr:0.36),(Ce:0.55),(Ta:0.72),(Pb:64.13)
##DET_HASH   : 12273538-fd48-a23f-0a19-f1e6fa85caef
##CALIB_HASH : 6abaa72c-aa41-8738-0be9-f592914732f3
##WORKING    : 15.0 mm
##DET_NAME   : EDAX All
##DET_MODE   : MediumLE
#SPECTRUM    :
22,
573,
11684,
7624,
27738,
8463,
7209,
7685,
8538,
9426,
10429,
11734,
53050,
39528,
9539,
10178,
19873,
152809,
25846,
12629,
5573,
6232,
7710,
5753,
5443,
5496,
5387,
5371,
5126,
5342,
5295,
5174,
6194,
5257,
5376,
5572,
4886,
4779,
4752,
4439,
4570,
4312,
4245,
4239,
4078,
4174,
4823,
3814,
3838,
3615,
3687,
3558,
3459,
3525,
3307,
3205,
3220,
3059,
3278,
2992,
2808,
2728,
2796,
2597,
2541,
2907,
2859,
2467,
2343,
2284,
2215,
2147,
2021,
2127,
3089,
11810,
6472,
1878,
1720,
1663,
1638,
1658,
1523,
1396,
1395,
1371,
1356,
1503,
1396,
2040,
5331,
2273,
1249,
1226,
988,
903,
848,
836,
831,
760,
753,
760,
690,
640,
659,
849,
747,
584,
609,
571,
478,
445,
389,
393,
364,
356,
346,
275,
307,
288,
238,
236,
248,
218,
213,
189,
158,
167,
152,
135,
105,
110,
100,
102,
73,
68,
54,
50,
51,
37,
27,
26,
16,
7,
8,
6,
3,
2,
4,
3,
8,
5,
2,
5,
5,
1,
1,
1,
1,
1,
0,
0,
2,
0,
2,
0,
0,
1,
2,
1,
1,
0,
0,
0,
1,
1,
0,
1,
3,
0,
0,
0,
1,
2,
0,
1,
0,
0,
2,
2,
1,
0,
0,
2,
0,
0,
1,
0,
0,
0,
1,
0,
0,
0,
0,
0,
0,
0,
0,
1,
1,
1,
1,
0,
0,
1,
0,
0,
0,
0,
0,
0,
0,
0,
0,
0,
0,
0,
0,
0,
0,
0,
0,
0,
0,
0,
0,
0,
0,
0,
0,
0,
0,
0,
0,
0,
0,
0,
0,
0,
0,
0,
0,
0,
1,
0,
0,
0,
0,
0,
0,
0,
0,
0,
0,
0,
0,
0,
0,
0,
0,
0,
0,
0,
0,
0,
0,
0,
0,
0,
0,
0,
0,
0,
0,
0,
0,
0,
0,
0,
0,
0,
0,
0,
#ENDOFDATA   :