File: N132962/Quantification/20 keV/Glass Mount IIIB/GM IIIB K1070[1][4].msa
#FORMAT      : EMSA/MAS Spectral Data File
#VERSION     : 1.0
#TITLE       : GM IIIB K1070[1][all]
#DATE        : 10-SEP-2025
#TIME        : 16:51
#OWNER       : Unknown
#NPOINTS     : 4096
#NCOLUMNS    : 1
#XUNITS      : eV
#YUNITS      : counts
#DATATYPE    : Y
#XPERCHAN    : 9.99778
#OFFSET      : 1.69135
#BEAMKV      : 20
#SIGNALTYPE  : EDS
#ELEVANGLE   : 35
#AZIMANGLE   : 0
#LIVETIME    : 240.181
#REALTIME    : 260.006
#PROBECUR    : 1.22416
#TAUWIND     : 0
#TDEADLYR    : 0
#TACTLYR     : 0.045
#TALWIND     : 0.025
#CHOFFSET    : 0.0
#XLABEL      : Energy (eV)
#YLABEL      : Counts
#XPOSITION   : 1.33771
#YPOSITION   : 13.46562
#ZPOSITION   : 34.06144
#EDSDET      : SD
##SPECIMEN   : GM IIIB K1070[1][all]
##D2STDCMP   : K1070,(O:34.31),(Mg:7.54),(Si:18.7),(Ca:8.93),(Zn:10.04),(Ba:11.2),(Pb:9.28)
##DET_HASH   : 12273538-fd48-a23f-0a19-f1e6fa85caef
##CALIB_HASH : 6abaa72c-aa41-8738-0be9-f592914732f3
##WORKING    : 15.0 mm
##DET_NAME   : EDAX All
##DET_MODE   : MediumLE
#SPECTRUM    :
25,
248,
9392,
7053,
47068,
4399,
5876,
27550,
6105,
52761,
5392,
6133,
51933,
27239,
5080,
4647,
6132,
21700,
6540,
5379,
4387,
4238,
4565,
4069,
3971,
4120,
29647,
11710,
5083,
7401,
3379,
4097,
19210,
3230,
6022,
7476,
3172,
5178,
2541,
2966,
2850,
2612,
2394,
2170,
2072,
2133,
2073,
1949,
1825,
1799,
1719,
1802,
1635,
1625,
1621,
1469,
1472,
1454,
1418,
1398,
1413,
5382,
8344,
1447,
1159,
1192,
1213,
1122,
2124,
1559,
972,
946,
888,
941,
1076,
1900,
1375,
818,
789,
761,
705,
672,
660,
579,
627,
571,
576,
539,
537,
599,
942,
598,
447,
453,
372,
379,
347,
343,
328,
306,
295,
278,
277,
247,
241,
266,
250,
209,
192,
205,
177,
159,
144,
130,
158,
129,
126,
99,
98,
95,
93,
95,
79,
67,
69,
71,
58,
54,
50,
50,
39,
35,
34,
34,
34,
17,
21,
11,
12,
12,
10,
7,
4,
2,
2,
1,
2,
1,
0,
1,
0,
0,
1,
2,
0,
1,
2,
0,
0,
1,
0,
1,
0,
0,
0,
0,
0,
0,
0,
0,
0,
0,
0,
0,
0,
0,
0,
0,
0,
0,
0,
0,
0,
0,
0,
0,
0,
1,
0,
0,
1,
0,
0,
0,
0,
0,
0,
0,
0,
0,
0,
0,
0,
0,
0,
0,
0,
0,
0,
0,
0,
0,
0,
0,
0,
0,
0,
0,
0,
0,
0,
0,
0,
0,
0,
0,
0,
0,
0,
0,
0,
0,
0,
0,
0,
0,
0,
0,
0,
0,
0,
0,
0,
0,
0,
0,
0,
0,
0,
0,
0,
0,
0,
0,
0,
0,
0,
0,
0,
0,
0,
0,
0,
0,
0,
0,
0,
0,
0,
0,
0,
0,
0,
0,
0,
0,
0,
0,
0,
0,
0,
0,
0,
0,
0,
0,
0,
0,
0,
0,
0,
0,
0,
0,
#ENDOFDATA   :