File: N132962/Quantification/20 keV/Glass Mount IIIB/GM IIIB K230[1][4].msa
#FORMAT      : EMSA/MAS Spectral Data File
#VERSION     : 1.0
#TITLE       : GM IIIB K230[1][all]
#DATE        : 10-SEP-2025
#TIME        : 19:12
#OWNER       : Unknown
#NPOINTS     : 4096
#NCOLUMNS    : 1
#XUNITS      : eV
#YUNITS      : counts
#DATATYPE    : Y
#XPERCHAN    : 9.99778
#OFFSET      : 1.69135
#BEAMKV      : 20
#SIGNALTYPE  : EDS
#ELEVANGLE   : 35
#AZIMANGLE   : 0
#LIVETIME    : 240.1645
#REALTIME    : 264.427
#PROBECUR    : 1.21918
#TAUWIND     : 0
#TDEADLYR    : 0
#TACTLYR     : 0.045
#TALWIND     : 0.025
#CHOFFSET    : 0.0
#XLABEL      : Energy (eV)
#YLABEL      : Counts
#XPOSITION   : 4.59057
#YPOSITION   : -1.16702
#ZPOSITION   : 34.0016
#EDSDET      : SD
##SPECIMEN   : GM IIIB K230[1][all]
##D2STDCMP   : K230,(O:24.49),(Al:2.65),(Si:14.02),(Zn:4.02),(Ba:8.96),(Ta:4.09),(Pb:41.77)
##DET_HASH   : 12273538-fd48-a23f-0a19-f1e6fa85caef
##CALIB_HASH : 6abaa72c-aa41-8738-0be9-f592914732f3
##WORKING    : 15.0 mm
##DET_NAME   : EDAX All
##DET_MODE   : MediumLE
#SPECTRUM    :
22,
413,
10080,
7946,
36025,
7044,
7029,
15944,
7431,
7992,
10183,
16723,
57088,
33963,
7596,
7335,
13926,
92019,
17194,
10212,
5152,
5625,
6623,
5426,
5052,
5147,
4918,
4939,
5109,
4894,
4841,
5468,
17758,
4851,
7041,
8076,
4610,
6241,
4083,
4321,
4256,
4038,
3697,
3554,
3384,
3523,
3592,
3226,
3157,
3128,
3038,
3025,
2970,
3001,
2872,
2659,
2674,
2754,
4525,
2869,
2441,
4232,
5498,
2290,
2080,
2422,
2636,
2617,
2570,
2499,
1819,
1764,
1687,
1711,
2351,
7568,
4405,
1577,
1539,
1374,
1390,
1363,
1256,
1170,
1141,
1105,
1141,
1126,
1102,
1464,
3439,
1623,
999,
915,
786,
730,
662,
661,
642,
566,
654,
606,
547,
501,
496,
672,
546,
477,
484,
418,
398,
346,
351,
310,
301,
294,
259,
248,
213,
227,
189,
187,
195,
155,
152,
130,
124,
116,
125,
98,
113,
91,
71,
68,
55,
57,
55,
32,
38,
13,
19,
11,
8,
0,
5,
4,
0,
1,
2,
2,
2,
0,
0,
2,
3,
3,
1,
0,
1,
4,
0,
1,
1,
2,
1,
1,
0,
0,
3,
1,
1,
1,
1,
0,
0,
2,
0,
0,
1,
1,
1,
1,
0,
0,
0,
0,
0,
1,
0,
1,
0,
0,
0,
0,
0,
0,
0,
0,
0,
0,
0,
0,
1,
0,
0,
0,
0,
0,
0,
0,
0,
1,
0,
0,
0,
0,
0,
0,
0,
0,
0,
0,
0,
0,
0,
1,
0,
0,
0,
0,
0,
0,
0,
0,
0,
0,
0,
0,
0,
0,
0,
0,
0,
0,
0,
0,
0,
0,
0,
0,
0,
0,
0,
0,
0,
0,
0,
0,
0,
0,
0,
0,
0,
0,
0,
0,
0,
0,
0,
0,
0,
0,
0,
0,
0,
0,
0,
0,
0,
0,
0,
0,
0,
0,
0,
0,
0,
0,
0,
0,
0,
0,
0,
0,
#ENDOFDATA   :