File: N132962/Quantification/20 keV/Glass Mount IIIB/GM IIIB K366[4][4].msa
#FORMAT      : EMSA/MAS Spectral Data File
#VERSION     : 1.0
#TITLE       : GM IIIB K366[4][all]
#DATE        : 10-SEP-2025
#TIME        : 18:28
#OWNER       : Unknown
#NPOINTS     : 4096
#NCOLUMNS    : 1
#XUNITS      : eV
#YUNITS      : counts
#DATATYPE    : Y
#XPERCHAN    : 9.99778
#OFFSET      : 1.69135
#BEAMKV      : 20
#SIGNALTYPE  : EDS
#ELEVANGLE   : 35
#AZIMANGLE   : 0
#LIVETIME    : 240.315
#REALTIME    : 267.745
#PROBECUR    : 1.22475
#TAUWIND     : 0
#TDEADLYR    : 0
#TACTLYR     : 0.045
#TALWIND     : 0.025
#CHOFFSET    : 0.0
#XLABEL      : Energy (eV)
#YLABEL      : Counts
#XPOSITION   : 8.4391
#YPOSITION   : 3.05838
#ZPOSITION   : 34.00159
#EDSDET      : SD
##SPECIMEN   : GM IIIB K366[4][all]
##D2STDCMP   : K366,(O:20.43),(Si:13.45),(Pb:66.12)
##DET_HASH   : 12273538-fd48-a23f-0a19-f1e6fa85caef
##CALIB_HASH : 6abaa72c-aa41-8738-0be9-f592914732f3
##WORKING    : 15.0 mm
##DET_NAME   : EDAX All
##DET_MODE   : MediumLE
#SPECTRUM    :
20,
593,
12081,
7512,
27957,
8451,
7063,
7673,
8366,
9572,
10391,
11323,
52594,
40014,
9255,
9614,
20500,
160422,
26824,
12832,
5672,
6133,
7712,
5814,
5319,
5645,
5383,
5504,
5271,
5506,
5394,
5154,
5500,
5227,
5100,
5060,
4782,
4741,
4696,
4518,
4576,
4286,
4364,
4206,
4155,
4178,
4173,
3875,
3734,
3840,
3670,
3527,
3428,
3577,
3269,
3141,
3155,
3152,
2923,
2940,
2861,
2754,
2709,
2686,
2589,
2864,
2941,
2397,
2299,
2298,
2149,
2136,
2088,
2048,
3073,
12347,
6796,
1953,
1721,
1719,
1707,
1645,
1547,
1483,
1530,
1398,
1475,
1493,
1438,
1933,
5519,
2390,
1343,
1235,
1032,
892,
910,
823,
777,
783,
742,
711,
727,
636,
680,
938,
819,
601,
559,
533,
459,
431,
425,
411,
386,
357,
323,
291,
268,
277,
261,
262,
249,
207,
202,
191,
181,
165,
147,
134,
129,
111,
123,
89,
64,
89,
84,
60,
48,
26,
39,
24,
20,
5,
6,
3,
5,
5,
6,
1,
4,
6,
1,
2,
1,
2,
4,
2,
1,
1,
1,
0,
1,
1,
1,
4,
1,
0,
1,
2,
0,
3,
2,
1,
0,
1,
0,
2,
0,
2,
0,
2,
2,
1,
1,
0,
0,
3,
0,
2,
1,
1,
0,
1,
1,
1,
0,
1,
0,
0,
1,
0,
1,
0,
0,
1,
0,
0,
0,
0,
0,
0,
0,
0,
0,
0,
0,
0,
0,
0,
1,
0,
0,
0,
0,
0,
0,
0,
0,
0,
0,
0,
1,
0,
0,
0,
0,
0,
0,
0,
0,
0,
0,
0,
0,
0,
0,
0,
0,
0,
0,
0,
0,
0,
0,
0,
0,
0,
0,
0,
0,
0,
0,
0,
0,
0,
0,
0,
0,
0,
0,
0,
0,
0,
0,
0,
0,
0,
0,
0,
0,
0,
0,
0,
0,
0,
0,
0,
0,
0,
0,
0,
0,
0,
#ENDOFDATA   :