File: N132962/Quantification/20 keV/Glass Mount IIIB/GM IIIB K373[4][4].msa
#FORMAT      : EMSA/MAS Spectral Data File
#VERSION     : 1.0
#TITLE       : GM IIIB K373[4][all]
#DATE        : 10-SEP-2025
#TIME        : 18:16
#OWNER       : Unknown
#NPOINTS     : 4096
#NCOLUMNS    : 1
#XUNITS      : eV
#YUNITS      : counts
#DATATYPE    : Y
#XPERCHAN    : 9.99778
#OFFSET      : 1.69135
#BEAMKV      : 20
#SIGNALTYPE  : EDS
#ELEVANGLE   : 35
#AZIMANGLE   : 0
#LIVETIME    : 240.135
#REALTIME    : 260.077
#PROBECUR    : 1.22475
#TAUWIND     : 0
#TDEADLYR    : 0
#TACTLYR     : 0.045
#TALWIND     : 0.025
#CHOFFSET    : 0.0
#XLABEL      : Energy (eV)
#YLABEL      : Counts
#XPOSITION   : 4.36931
#YPOSITION   : 2.3697
#ZPOSITION   : 34.00159
#EDSDET      : SD
##SPECIMEN   : GM IIIB K373[4][all]
##D2STDCMP   : K373,(O:42.34),(Na:10.43),(Si:31.85),(Zn:4.94),(Ba:10.38),(U:0.05)
##DET_HASH   : 12273538-fd48-a23f-0a19-f1e6fa85caef
##CALIB_HASH : 6abaa72c-aa41-8738-0be9-f592914732f3
##WORKING    : 15.0 mm
##DET_NAME   : EDAX All
##DET_MODE   : MediumLE
#SPECTRUM    :
12,
231,
5684,
10000,
82207,
3792,
4424,
25152,
6251,
4149,
4876,
6258,
90228,
41854,
3079,
3223,
4236,
3341,
3360,
3303,
3479,
3205,
3117,
3098,
3111,
3411,
2798,
2707,
3058,
2596,
2513,
3464,
17832,
2402,
5092,
6343,
2538,
4370,
1974,
2242,
2223,
1965,
1849,
1534,
1543,
1476,
1589,
1425,
1343,
1311,
1237,
1230,
1227,
1223,
1055,
1094,
986,
978,
981,
973,
943,
2875,
4234,
886,
801,
806,
777,
770,
1177,
983,
625,
613,
647,
617,
568,
574,
572,
497,
497,
483,
444,
423,
434,
410,
412,
356,
377,
324,
304,
328,
315,
302,
279,
265,
260,
272,
241,
224,
219,
180,
218,
182,
143,
154,
124,
131,
137,
156,
130,
123,
122,
96,
100,
77,
100,
68,
75,
83,
64,
69,
56,
53,
59,
57,
47,
37,
33,
26,
28,
25,
19,
26,
20,
19,
13,
11,
10,
5,
5,
5,
8,
3,
1,
2,
2,
0,
0,
0,
0,
0,
0,
1,
0,
0,
0,
0,
1,
0,
0,
0,
1,
0,
0,
0,
1,
0,
0,
0,
0,
0,
0,
0,
0,
0,
0,
0,
0,
0,
0,
0,
0,
0,
0,
0,
0,
1,
0,
0,
0,
0,
0,
0,
1,
0,
0,
0,
0,
0,
0,
0,
0,
0,
0,
0,
0,
0,
0,
0,
0,
0,
0,
0,
0,
0,
0,
0,
0,
0,
0,
0,
0,
0,
0,
0,
0,
0,
0,
0,
0,
0,
0,
0,
0,
0,
0,
0,
0,
0,
0,
0,
0,
0,
0,
0,
0,
0,
0,
0,
0,
0,
0,
0,
0,
0,
0,
0,
0,
0,
0,
0,
0,
0,
0,
0,
0,
0,
0,
0,
0,
0,
0,
0,
0,
0,
0,
0,
0,
0,
0,
0,
0,
0,
0,
0,
0,
0,
0,
0,
0,
0,
0,
0,
0,
0,
#ENDOFDATA   :