File: N132962/Quantification/20 keV/Glass Mount IIIB/GM IIIB K253[1][4].msa
#FORMAT      : EMSA/MAS Spectral Data File
#VERSION     : 1.0
#TITLE       : GM IIIB K253[1][all]
#DATE        : 10-SEP-2025
#TIME        : 19:06
#OWNER       : Unknown
#NPOINTS     : 4096
#NCOLUMNS    : 1
#XUNITS      : eV
#YUNITS      : counts
#DATATYPE    : Y
#XPERCHAN    : 9.99778
#OFFSET      : 1.69135
#BEAMKV      : 20
#SIGNALTYPE  : EDS
#ELEVANGLE   : 35
#AZIMANGLE   : 0
#LIVETIME    : 240.2238
#REALTIME    : 261.602
#PROBECUR    : 1.2221
#TAUWIND     : 0
#TDEADLYR    : 0
#TACTLYR     : 0.045
#TALWIND     : 0.025
#CHOFFSET    : 0.0
#XLABEL      : Energy (eV)
#YLABEL      : Counts
#XPOSITION   : 3.16249
#YPOSITION   : 0.66521
#ZPOSITION   : 34.00159
#EDSDET      : SD
##SPECIMEN   : GM IIIB K253[1][all]
##D2STDCMP   : K253,(O:31.64),(Si:18.7),(Mn:6.32),(Co:1.97),(Cu:2.0),(Zn:8.03),(Ba:31.35)
##DET_HASH   : 12273538-fd48-a23f-0a19-f1e6fa85caef
##CALIB_HASH : 6abaa72c-aa41-8738-0be9-f592914732f3
##WORKING    : 15.0 mm
##DET_NAME   : EDAX All
##DET_MODE   : MediumLE
#SPECTRUM    :
16,
343,
8062,
10685,
70841,
6757,
6825,
21763,
4971,
4559,
5129,
6452,
48840,
24827,
4705,
4864,
5424,
5236,
5171,
5283,
5174,
4810,
4935,
4633,
4429,
4713,
4347,
4241,
5450,
4386,
4094,
7213,
55160,
4463,
13490,
18131,
4961,
11085,
3087,
4164,
4402,
4016,
18818,
3886,
2436,
2372,
3935,
2785,
2144,
4076,
3527,
2026,
1935,
1979,
2058,
2049,
1746,
3547,
2860,
1635,
1595,
4994,
7243,
1709,
1601,
1357,
1335,
1414,
2056,
1589,
1185,
1172,
1085,
1063,
1053,
1000,
950,
922,
911,
866,
871,
817,
807,
725,
696,
657,
648,
648,
636,
603,
576,
543,
508,
545,
481,
464,
469,
419,
428,
393,
387,
351,
319,
324,
298,
271,
267,
243,
257,
227,
218,
221,
166,
168,
170,
160,
151,
148,
133,
121,
102,
108,
102,
85,
102,
78,
79,
63,
68,
55,
45,
45,
37,
41,
35,
21,
27,
27,
14,
24,
8,
6,
4,
1,
3,
1,
4,
2,
1,
2,
0,
1,
0,
1,
0,
0,
0,
4,
0,
0,
4,
2,
1,
0,
0,
1,
0,
0,
0,
1,
0,
0,
1,
0,
0,
2,
0,
0,
0,
1,
0,
0,
0,
1,
1,
0,
0,
0,
0,
0,
0,
0,
0,
0,
0,
0,
0,
0,
0,
0,
0,
0,
0,
1,
1,
0,
0,
0,
0,
0,
0,
0,
0,
0,
0,
0,
0,
0,
0,
0,
0,
0,
0,
0,
0,
0,
0,
0,
0,
0,
0,
0,
0,
0,
0,
0,
0,
0,
0,
0,
0,
0,
0,
0,
0,
0,
0,
0,
0,
0,
0,
0,
0,
0,
0,
0,
0,
0,
0,
0,
0,
0,
0,
0,
0,
0,
0,
0,
0,
0,
0,
0,
0,
0,
0,
0,
0,
0,
0,
0,
0,
0,
0,
0,
0,
0,
0,
0,
0,
0,
0,
0,
0,
0,
#ENDOFDATA   :