File: N132962/Quantification/20 keV/Glass Mount IIIB/GM IIIB K1053[0][4].msa
#FORMAT      : EMSA/MAS Spectral Data File
#VERSION     : 1.0
#TITLE       : GM IIIB K1053[0][all]
#DATE        : 10-SEP-2025
#TIME        : 16:55
#OWNER       : Unknown
#NPOINTS     : 4096
#NCOLUMNS    : 1
#XUNITS      : eV
#YUNITS      : counts
#DATATYPE    : Y
#XPERCHAN    : 9.99778
#OFFSET      : 1.69135
#BEAMKV      : 20
#SIGNALTYPE  : EDS
#ELEVANGLE   : 35
#AZIMANGLE   : 0
#LIVETIME    : 240.332
#REALTIME    : 269.028
#PROBECUR    : 1.22416
#TAUWIND     : 0
#TDEADLYR    : 0
#TACTLYR     : 0.045
#TALWIND     : 0.025
#CHOFFSET    : 0.0
#XLABEL      : Energy (eV)
#YLABEL      : Counts
#XPOSITION   : 3.44298
#YPOSITION   : 13.85781
#ZPOSITION   : 34.06144
#EDSDET      : SD
##SPECIMEN   : GM IIIB K1053[0][all]
##D2STDCMP   : K1053,(O:16.13),(F:0.39),(Si:9.35),(Cl:0.64),(Br:1.09),(I:1.37),(Pb:71.02)
##DET_HASH   : 12273538-fd48-a23f-0a19-f1e6fa85caef
##CALIB_HASH : 6abaa72c-aa41-8738-0be9-f592914732f3
##WORKING    : 15.0 mm
##DET_NAME   : EDAX All
##DET_MODE   : MediumLE
#SPECTRUM    :
27,
720,
13591,
7420,
23167,
10251,
7907,
8166,
9066,
10037,
11211,
14657,
40453,
36105,
10130,
10561,
22413,
178230,
29647,
16106,
6219,
6500,
8143,
5995,
5745,
5957,
5616,
5908,
7589,
5837,
6707,
5724,
6300,
5552,
5688,
5447,
5345,
5083,
5036,
4938,
4844,
4763,
4653,
4555,
4528,
4554,
4737,
4290,
4183,
4118,
4157,
3841,
3770,
3991,
3623,
3601,
3436,
3285,
3314,
3159,
3125,
3052,
2998,
2885,
2864,
3294,
3296,
2672,
2573,
2458,
2367,
2372,
2213,
2253,
3555,
13769,
7661,
2177,
1871,
1906,
1832,
1892,
1758,
1685,
1618,
1802,
1583,
1592,
1626,
2372,
6185,
2643,
1448,
1437,
1130,
1134,
1002,
943,
849,
852,
814,
803,
764,
687,
758,
1041,
902,
615,
689,
635,
493,
505,
517,
460,
391,
419,
373,
371,
358,
323,
311,
266,
290,
238,
226,
239,
208,
183,
169,
161,
149,
142,
119,
96,
106,
67,
81,
75,
52,
47,
29,
23,
10,
6,
4,
2,
13,
9,
5,
4,
7,
7,
6,
4,
4,
3,
1,
2,
3,
3,
2,
4,
3,
1,
4,
2,
2,
0,
5,
2,
3,
0,
0,
1,
0,
1,
2,
2,
1,
2,
2,
1,
0,
1,
1,
1,
1,
0,
1,
3,
2,
0,
1,
0,
1,
1,
2,
0,
0,
2,
0,
0,
1,
0,
0,
1,
1,
0,
0,
0,
0,
0,
0,
0,
1,
1,
0,
0,
0,
0,
0,
0,
0,
0,
0,
0,
0,
0,
0,
0,
0,
0,
0,
0,
0,
0,
0,
0,
0,
0,
0,
0,
0,
0,
0,
0,
0,
0,
0,
0,
0,
0,
0,
0,
0,
0,
0,
0,
0,
0,
0,
0,
0,
0,
0,
0,
0,
0,
0,
0,
0,
0,
0,
0,
0,
0,
0,
0,
0,
0,
0,
0,
0,
0,
0,
0,
0,
0,
0,
0,
0,
0,
0,
0,
#ENDOFDATA   :