File: N132962/Quantification/20 keV/Glass Mount IIIB/GM IIIA K1010[4][4].msa
#FORMAT      : EMSA/MAS Spectral Data File
#VERSION     : 1.0
#TITLE       : K1010 IIIA K1010[4][all]
#DATE        : 18-SEP-2025
#TIME        : 10:11
#OWNER       : Unknown
#NPOINTS     : 4096
#NCOLUMNS    : 1
#XUNITS      : eV
#YUNITS      : counts
#DATATYPE    : Y
#XPERCHAN    : 9.99778
#OFFSET      : 1.69135
#BEAMKV      : 20
#SIGNALTYPE  : EDS
#ELEVANGLE   : 35
#AZIMANGLE   : 0
#LIVETIME    : 240.21
#REALTIME    : 260.005
#PROBECUR    : 1.21237
#TAUWIND     : 0
#TDEADLYR    : 0
#TACTLYR     : 0.045
#TALWIND     : 0.025
#CHOFFSET    : 0.0
#XLABEL      : Energy (eV)
#YLABEL      : Counts
#XPOSITION   : 10.46265
#YPOSITION   : 15.57501
#ZPOSITION   : 37.3512
#EDSDET      : SD
##SPECIMEN   : K1010 IIIA K1010[4][all]
##DET_HASH   : 12273538-fd48-a23f-0a19-f1e6fa85caef
##CALIB_HASH : 6abaa72c-aa41-8738-0be9-f592914732f3
##WORKING    : 15.0 mm
##DET_NAME   : EDAX All
##DET_MODE   : MediumLE
#SPECTRUM    :
23,
239,
7134,
6517,
47322,
3592,
5300,
5169,
8848,
8384,
11930,
36205,
70052,
72380,
6083,
3577,
3967,
3588,
3567,
3707,
3607,
3747,
3560,
5118,
10060,
4041,
23489,
10361,
3839,
6322,
3443,
4690,
2910,
6229,
2928,
2897,
3558,
2597,
2539,
2432,
2041,
2452,
3543,
3549,
2075,
1842,
2741,
1873,
2488,
2023,
1564,
1656,
1397,
1484,
1335,
1368,
1311,
1257,
1201,
1150,
1113,
1068,
986,
1022,
959,
926,
892,
833,
853,
784,
1348,
1350,
786,
741,
679,
641,
654,
614,
690,
645,
551,
547,
471,
488,
479,
473,
451,
393,
432,
369,
384,
361,
373,
345,
285,
457,
374,
291,
270,
254,
408,
660,
321,
191,
196,
187,
185,
176,
145,
146,
140,
146,
137,
156,
138,
117,
113,
82,
83,
83,
74,
63,
43,
50,
44,
60,
49,
49,
33,
26,
25,
24,
26,
20,
22,
15,
16,
9,
11,
6,
7,
0,
1,
1,
0,
1,
1,
0,
0,
1,
1,
0,
0,
0,
1,
0,
1,
1,
0,
0,
0,
1,
0,
1,
0,
0,
0,
0,
0,
0,
0,
0,
0,
0,
0,
0,
1,
0,
0,
0,
0,
0,
0,
0,
0,
0,
0,
0,
0,
0,
0,
1,
0,
0,
0,
0,
0,
0,
0,
0,
0,
0,
0,
0,
0,
0,
0,
0,
0,
1,
0,
0,
0,
0,
0,
0,
0,
0,
0,
0,
0,
0,
0,
0,
0,
0,
0,
0,
0,
0,
0,
0,
0,
0,
0,
0,
0,
0,
0,
0,
0,
0,
0,
0,
0,
0,
0,
0,
0,
0,
0,
0,
0,
0,
0,
0,
0,
0,
0,
0,
0,
0,
0,
0,
0,
0,
0,
0,
0,
0,
0,
0,
0,
0,
0,
0,
0,
0,
0,
0,
0,
0,
0,
0,
0,
0,
0,
0,
0,
0,
0,
0,
0,
0,
#ENDOFDATA   :