File: N132962/Quantification/20 keV/Glass Mount IIIB/GM IIIB K963[3][4].msa
#FORMAT      : EMSA/MAS Spectral Data File
#VERSION     : 1.0
#TITLE       : GM IIIB K963[3][all]
#DATE        : 10-SEP-2025
#TIME        : 16:18
#OWNER       : Unknown
#NPOINTS     : 4096
#NCOLUMNS    : 1
#XUNITS      : eV
#YUNITS      : counts
#DATATYPE    : Y
#XPERCHAN    : 9.99778
#OFFSET      : 1.69135
#BEAMKV      : 20
#SIGNALTYPE  : EDS
#ELEVANGLE   : 35
#AZIMANGLE   : 0
#LIVETIME    : 240.153
#REALTIME    : 261.61
#PROBECUR    : 1.22413
#TAUWIND     : 0
#TDEADLYR    : 0
#TACTLYR     : 0.045
#TALWIND     : 0.025
#CHOFFSET    : 0.0
#XLABEL      : Energy (eV)
#YLABEL      : Counts
#XPOSITION   : 9.18582
#YPOSITION   : 12.43052
#ZPOSITION   : 34.06144
#EDSDET      : SD
##SPECIMEN   : GM IIIB K963[3][all]
##D2STDCMP   : K963,(O:31.92),(Mg:0.14),(Si:21.99),(P:0.36),(Ti:0.28),(Cr:0.3),(Ni:0.34),(Zn:3.0),(Ge:0.42),(Zr:0.53),(Ba:39.52),(Eu:0.88),(Th:0.13),(U:0.17)
##DET_HASH   : 12273538-fd48-a23f-0a19-f1e6fa85caef
##CALIB_HASH : 6abaa72c-aa41-8738-0be9-f592914732f3
##WORKING    : 15.0 mm
##DET_NAME   : EDAX All
##DET_MODE   : MediumLE
#SPECTRUM    :
13,
344,
7949,
11076,
71162,
5797,
6428,
11732,
5825,
7174,
5661,
6707,
56406,
28297,
5746,
5987,
5621,
4990,
4963,
5077,
5007,
4963,
5006,
4862,
4797,
4713,
4365,
4237,
5905,
4556,
4109,
7981,
66128,
4793,
15125,
21058,
5369,
12867,
3465,
5173,
4705,
3979,
3953,
2615,
2392,
2471,
2782,
2415,
2134,
2222,
2054,
2007,
1978,
2463,
2056,
1849,
1730,
1673,
1728,
1728,
1600,
2806,
3670,
1447,
1459,
1457,
1295,
1345,
1634,
1455,
1415,
1275,
1103,
1080,
1054,
1032,
979,
1000,
948,
879,
863,
842,
772,
766,
703,
695,
702,
656,
685,
600,
627,
556,
583,
527,
502,
429,
448,
425,
401,
410,
435,
377,
353,
343,
319,
290,
279,
281,
264,
249,
240,
200,
226,
183,
175,
170,
172,
145,
151,
121,
139,
127,
118,
91,
71,
80,
94,
67,
67,
53,
48,
55,
52,
43,
32,
32,
29,
20,
17,
10,
7,
10,
6,
3,
0,
1,
2,
2,
1,
3,
1,
3,
0,
1,
1,
1,
0,
0,
0,
0,
0,
4,
0,
0,
1,
0,
2,
0,
0,
0,
0,
0,
1,
0,
0,
0,
0,
0,
0,
0,
0,
0,
1,
0,
0,
0,
0,
0,
1,
0,
0,
0,
0,
0,
0,
0,
0,
0,
0,
0,
0,
0,
0,
0,
1,
0,
0,
0,
1,
0,
0,
0,
0,
0,
0,
0,
0,
0,
0,
0,
0,
0,
0,
0,
0,
0,
0,
0,
0,
0,
0,
0,
0,
0,
0,
0,
0,
0,
0,
0,
0,
0,
0,
0,
0,
0,
0,
0,
0,
0,
0,
0,
0,
0,
0,
0,
0,
0,
0,
0,
0,
0,
0,
0,
0,
0,
0,
0,
0,
0,
0,
0,
0,
0,
0,
0,
0,
0,
0,
0,
0,
0,
0,
0,
0,
0,
0,
0,
0,
0,
0,
0,
0,
0,
#ENDOFDATA   :