File: N132962/Quantification/20 keV/Glass Mount IIIB/GM IIIB K230[4][4].msa
#FORMAT      : EMSA/MAS Spectral Data File
#VERSION     : 1.0
#TITLE       : GM IIIB K230[4][all]
#DATE        : 10-SEP-2025
#TIME        : 19:15
#OWNER       : Unknown
#NPOINTS     : 4096
#NCOLUMNS    : 1
#XUNITS      : eV
#YUNITS      : counts
#DATATYPE    : Y
#XPERCHAN    : 9.99778
#OFFSET      : 1.69135
#BEAMKV      : 20
#SIGNALTYPE  : EDS
#ELEVANGLE   : 35
#AZIMANGLE   : 0
#LIVETIME    : 240.199
#REALTIME    : 264.4877
#PROBECUR    : 1.21918
#TAUWIND     : 0
#TDEADLYR    : 0
#TACTLYR     : 0.045
#TALWIND     : 0.025
#CHOFFSET    : 0.0
#XLABEL      : Energy (eV)
#YLABEL      : Counts
#XPOSITION   : 4.52585
#YPOSITION   : -1.14287
#ZPOSITION   : 34.00159
#EDSDET      : SD
##SPECIMEN   : GM IIIB K230[4][all]
##D2STDCMP   : K230,(O:24.49),(Al:2.65),(Si:14.02),(Zn:4.02),(Ba:8.96),(Ta:4.09),(Pb:41.77)
##DET_HASH   : 12273538-fd48-a23f-0a19-f1e6fa85caef
##CALIB_HASH : 6abaa72c-aa41-8738-0be9-f592914732f3
##WORKING    : 15.0 mm
##DET_NAME   : EDAX All
##DET_MODE   : MediumLE
#SPECTRUM    :
27,
440,
10349,
7928,
36038,
6983,
6871,
15686,
7502,
7796,
10085,
17062,
57044,
33621,
7649,
7471,
13620,
92461,
17292,
10411,
5368,
5557,
6636,
5422,
5169,
5112,
4964,
4928,
5129,
5050,
4833,
5557,
17905,
4761,
7025,
8222,
4699,
6163,
3993,
4293,
4325,
4002,
3799,
3566,
3346,
3545,
3594,
3229,
3170,
3200,
3024,
3106,
2923,
3003,
2814,
2687,
2588,
2710,
4583,
2829,
2376,
4337,
5520,
2271,
2172,
2388,
2741,
2670,
2470,
2460,
1814,
1740,
1645,
1729,
2287,
7656,
4393,
1524,
1511,
1364,
1413,
1371,
1209,
1219,
1164,
1127,
1137,
1191,
1119,
1418,
3550,
1605,
947,
938,
798,
734,
747,
656,
657,
622,
622,
588,
562,
540,
517,
687,
575,
465,
455,
459,
354,
355,
325,
328,
316,
285,
286,
243,
217,
221,
185,
195,
183,
162,
175,
141,
146,
111,
123,
109,
103,
64,
80,
75,
62,
61,
49,
50,
30,
23,
21,
12,
8,
3,
3,
2,
4,
0,
2,
5,
0,
2,
3,
0,
0,
1,
2,
0,
3,
0,
1,
1,
0,
3,
5,
1,
1,
1,
1,
0,
1,
0,
1,
0,
1,
0,
1,
0,
2,
1,
1,
0,
1,
1,
1,
1,
0,
0,
0,
1,
0,
0,
0,
0,
0,
0,
0,
1,
0,
1,
0,
1,
0,
0,
0,
0,
1,
0,
0,
0,
1,
1,
0,
0,
0,
0,
0,
0,
0,
0,
0,
0,
0,
0,
0,
0,
0,
0,
0,
0,
0,
0,
0,
0,
0,
0,
0,
0,
0,
0,
0,
0,
0,
0,
0,
0,
0,
0,
0,
0,
0,
0,
0,
0,
0,
0,
0,
0,
0,
0,
0,
0,
0,
0,
0,
0,
0,
0,
0,
0,
0,
0,
0,
0,
0,
0,
0,
0,
0,
0,
0,
0,
0,
0,
0,
0,
0,
0,
0,
0,
0,
0,
0,
0,
#ENDOFDATA   :