File: N132962/Quantification/20 keV/Glass Mount IIIB/GM IIIB K493[4][4].msa
#FORMAT      : EMSA/MAS Spectral Data File
#VERSION     : 1.0
#TITLE       : GM IIIB K493[4][all]
#DATE        : 10-SEP-2025
#TIME        : 15:20
#OWNER       : Unknown
#NPOINTS     : 4096
#NCOLUMNS    : 1
#XUNITS      : eV
#YUNITS      : counts
#DATATYPE    : Y
#XPERCHAN    : 9.99778
#OFFSET      : 1.69135
#BEAMKV      : 20
#SIGNALTYPE  : EDS
#ELEVANGLE   : 35
#AZIMANGLE   : 0
#LIVETIME    : 240.297
#REALTIME    : 267.376
#PROBECUR    : 1.22616
#TAUWIND     : 0
#TDEADLYR    : 0
#TACTLYR     : 0.045
#TALWIND     : 0.025
#CHOFFSET    : 0.0
#XLABEL      : Energy (eV)
#YLABEL      : Counts
#XPOSITION   : 1.535
#YPOSITION   : 6.96658
#ZPOSITION   : 34.06144
#EDSDET      : SD
##SPECIMEN   : GM IIIB K493[4][all]
##D2STDCMP   : K493,(B:0.04),(O:20.63),(Al:0.11),(Si:13.04),(Ti:0.19),(Fe:0.22),(Zr:0.36),(Ce:0.55),(Ta:0.72),(Pb:64.13)
##DET_HASH   : 12273538-fd48-a23f-0a19-f1e6fa85caef
##CALIB_HASH : 6abaa72c-aa41-8738-0be9-f592914732f3
##WORKING    : 15.0 mm
##DET_NAME   : EDAX All
##DET_MODE   : MediumLE
#SPECTRUM    :
22,
527,
11811,
7603,
27778,
8499,
7345,
7872,
8428,
9452,
10361,
11705,
53042,
39228,
9330,
10425,
19962,
152903,
25608,
12628,
5558,
6025,
7533,
5799,
5346,
5615,
5432,
5317,
5133,
5362,
5401,
5145,
6230,
5234,
5254,
5473,
4779,
4746,
4780,
4567,
4575,
4333,
4461,
4288,
4121,
4215,
4646,
3804,
3640,
3653,
3663,
3514,
3332,
3484,
3343,
3175,
2975,
2966,
3318,
2998,
2824,
2726,
2773,
2674,
2631,
2843,
2904,
2603,
2401,
2327,
2161,
2167,
2045,
2056,
3123,
11783,
6436,
1930,
1731,
1659,
1656,
1642,
1527,
1458,
1351,
1346,
1381,
1537,
1430,
1945,
5305,
2253,
1226,
1157,
947,
938,
848,
838,
843,
785,
709,
709,
680,
604,
622,
868,
755,
571,
556,
529,
454,
400,
440,
411,
361,
334,
316,
345,
287,
261,
261,
245,
246,
202,
210,
190,
162,
174,
151,
126,
134,
120,
101,
69,
100,
75,
61,
59,
52,
35,
28,
16,
14,
8,
1,
1,
6,
2,
2,
5,
3,
3,
4,
3,
3,
5,
3,
4,
3,
4,
0,
5,
0,
0,
1,
4,
4,
2,
4,
2,
0,
3,
0,
0,
1,
0,
2,
0,
1,
0,
0,
0,
2,
1,
3,
0,
0,
2,
3,
1,
0,
0,
0,
0,
1,
3,
1,
0,
2,
0,
0,
1,
0,
1,
0,
0,
1,
0,
1,
0,
0,
0,
0,
0,
0,
0,
1,
0,
0,
0,
1,
0,
0,
0,
0,
0,
0,
0,
0,
0,
0,
0,
0,
0,
1,
0,
0,
0,
0,
0,
0,
0,
0,
0,
0,
0,
0,
0,
0,
0,
0,
0,
0,
0,
0,
0,
0,
0,
0,
0,
0,
0,
0,
0,
0,
0,
0,
0,
0,
0,
0,
0,
0,
0,
0,
0,
0,
0,
0,
0,
0,
0,
0,
0,
0,
0,
0,
0,
0,
0,
0,
0,
0,
0,
#ENDOFDATA   :