File: N132962/Quantification/20 keV/Glass Mount IIIB/GM IIIB K873[1][4].msa
#FORMAT      : EMSA/MAS Spectral Data File
#VERSION     : 1.0
#TITLE       : GM IIIB K873[1][all]
#DATE        : 10-SEP-2025
#TIME        : 15:28
#OWNER       : Unknown
#NPOINTS     : 4096
#NCOLUMNS    : 1
#XUNITS      : eV
#YUNITS      : counts
#DATATYPE    : Y
#XPERCHAN    : 9.99778
#OFFSET      : 1.69135
#BEAMKV      : 20
#SIGNALTYPE  : EDS
#ELEVANGLE   : 35
#AZIMANGLE   : 0
#LIVETIME    : 240.189
#REALTIME    : 262.497
#PROBECUR    : 1.22616
#TAUWIND     : 0
#TDEADLYR    : 0
#TACTLYR     : 0.045
#TALWIND     : 0.025
#CHOFFSET    : 0.0
#XLABEL      : Energy (eV)
#YLABEL      : Counts
#XPOSITION   : -2.46939
#YPOSITION   : 9.58993
#ZPOSITION   : 34.06144
#EDSDET      : SD
##SPECIMEN   : GM IIIB K873[1][all]
##D2STDCMP   : K873,(O:25.46),(Al:0.26),(Si:11.45),(Mn:0.32),(Ge:17.0),(Ba:21.94),(Ce:0.41),(Ta:0.41),(Pb:22.74)
##DET_HASH   : 12273538-fd48-a23f-0a19-f1e6fa85caef
##CALIB_HASH : 6abaa72c-aa41-8738-0be9-f592914732f3
##WORKING    : 15.0 mm
##DET_NAME   : EDAX All
##DET_MODE   : MediumLE
#SPECTRUM    :
23,
412,
9076,
8828,
44701,
6963,
6640,
8332,
15104,
21739,
6385,
7720,
34584,
21775,
6227,
6282,
9831,
49159,
11673,
8600,
5652,
5714,
6309,
5344,
5270,
5167,
4972,
5070,
5910,
4992,
4880,
6819,
38880,
4965,
11189,
14217,
5135,
9405,
4000,
4605,
4762,
4027,
4480,
3404,
3095,
3189,
3310,
2954,
2771,
2824,
2726,
2674,
2731,
2694,
2445,
2446,
2309,
2323,
2503,
2231,
2092,
2055,
2035,
1907,
2045,
1951,
2000,
1874,
1727,
1806,
8210,
8098,
1734,
1469,
1725,
4637,
2762,
1401,
2379,
1945,
1208,
1182,
1080,
1008,
1032,
953,
908,
949,
1025,
1141,
2110,
1189,
800,
747,
699,
607,
657,
596,
568,
549,
529,
511,
521,
438,
420,
552,
454,
380,
361,
313,
313,
281,
291,
256,
268,
258,
233,
226,
214,
191,
202,
171,
156,
144,
132,
122,
100,
93,
96,
95,
83,
77,
72,
58,
48,
58,
47,
28,
40,
13,
19,
14,
9,
2,
2,
0,
2,
3,
1,
0,
2,
0,
1,
4,
1,
1,
2,
5,
1,
2,
1,
0,
2,
3,
0,
1,
0,
0,
0,
0,
3,
0,
0,
0,
0,
0,
1,
1,
1,
0,
1,
0,
0,
1,
0,
1,
0,
1,
1,
1,
0,
0,
0,
0,
0,
0,
0,
0,
0,
1,
0,
0,
0,
0,
0,
0,
0,
0,
0,
0,
0,
0,
0,
0,
0,
0,
0,
0,
0,
0,
0,
0,
0,
0,
0,
0,
0,
0,
0,
0,
0,
0,
0,
0,
0,
0,
0,
0,
0,
0,
0,
0,
0,
0,
0,
0,
0,
0,
0,
0,
0,
0,
0,
0,
0,
0,
0,
0,
0,
0,
0,
0,
0,
0,
0,
0,
0,
0,
0,
0,
0,
0,
0,
0,
0,
0,
0,
0,
0,
0,
0,
0,
0,
0,
0,
0,
0,
0,
0,
0,
0,
0,
0,
0,
#ENDOFDATA   :