File: N132962/Quantification/20 keV/Glass Mount IIIB/GM IIIB K371[1][4].msa
#FORMAT      : EMSA/MAS Spectral Data File
#VERSION     : 1.0
#TITLE       : GM IIIB K371[1][all]
#DATE        : 10-SEP-2025
#TIME        : 14:41
#OWNER       : Unknown
#NPOINTS     : 4096
#NCOLUMNS    : 1
#XUNITS      : eV
#YUNITS      : counts
#DATATYPE    : Y
#XPERCHAN    : 9.99778
#OFFSET      : 1.69135
#BEAMKV      : 20
#SIGNALTYPE  : EDS
#ELEVANGLE   : 35
#AZIMANGLE   : 0
#LIVETIME    : 240.353
#REALTIME    : 262.12
#PROBECUR    : 1.22592
#TAUWIND     : 0
#TDEADLYR    : 0
#TACTLYR     : 0.045
#TALWIND     : 0.025
#CHOFFSET    : 0.0
#XLABEL      : Energy (eV)
#YLABEL      : Counts
#XPOSITION   : 11.55417
#YPOSITION   : 5.1865
#ZPOSITION   : 34.06144
#EDSDET      : SD
##SPECIMEN   : GM IIIB K371[1][all]
##D2STDCMP   : K371,(O:31.93),(Si:23.08),(Zn:3.07),(Ba:41.92)
##DET_HASH   : 12273538-fd48-a23f-0a19-f1e6fa85caef
##CALIB_HASH : 6abaa72c-aa41-8738-0be9-f592914732f3
##WORKING    : 15.0 mm
##DET_NAME   : EDAX All
##DET_MODE   : MediumLE
#SPECTRUM    :
25,
357,
8631,
10908,
72691,
5921,
5774,
11826,
4874,
4942,
5660,
6739,
58869,
29318,
4640,
4849,
5565,
4998,
4970,
5196,
5061,
4964,
4965,
4713,
4740,
4678,
4464,
4326,
6057,
4431,
4153,
8301,
69755,
4673,
16457,
22208,
5627,
13551,
3180,
4761,
4794,
3645,
3313,
2595,
2418,
2350,
2515,
2252,
2170,
2115,
2033,
1966,
1957,
2032,
1903,
1788,
1796,
1662,
1695,
1632,
1625,
2779,
3762,
1496,
1474,
1417,
1385,
1311,
1650,
1448,
1184,
1162,
1156,
1090,
1132,
979,
992,
929,
932,
894,
852,
925,
822,
798,
793,
742,
659,
681,
647,
615,
592,
578,
526,
552,
513,
474,
483,
406,
419,
440,
383,
368,
374,
346,
352,
322,
271,
253,
251,
259,
250,
214,
181,
178,
162,
170,
153,
169,
134,
122,
144,
107,
99,
115,
82,
72,
89,
74,
54,
74,
44,
64,
38,
37,
42,
23,
31,
26,
17,
15,
7,
7,
3,
1,
6,
5,
2,
3,
3,
0,
0,
0,
1,
3,
1,
0,
4,
0,
0,
1,
3,
1,
1,
0,
1,
1,
0,
1,
0,
0,
0,
1,
1,
0,
1,
1,
0,
1,
0,
0,
0,
1,
0,
0,
0,
0,
1,
0,
0,
0,
0,
0,
0,
0,
0,
0,
0,
0,
0,
0,
0,
0,
0,
0,
0,
0,
0,
0,
0,
0,
0,
0,
0,
0,
0,
0,
0,
0,
0,
0,
0,
0,
0,
0,
0,
0,
0,
0,
0,
0,
0,
0,
0,
0,
0,
0,
0,
0,
0,
0,
0,
0,
0,
0,
0,
0,
0,
0,
0,
0,
0,
0,
0,
0,
0,
0,
0,
0,
0,
0,
0,
0,
0,
0,
0,
0,
0,
0,
0,
0,
0,
0,
0,
0,
0,
0,
0,
0,
0,
0,
0,
0,
0,
0,
0,
0,
0,
0,
0,
0,
0,
0,
0,
0,
#ENDOFDATA   :