File: N132962/Quantification/20 keV/Glass Mount IIIB/GM IIIB K373[2][4].msa
#FORMAT      : EMSA/MAS Spectral Data File
#VERSION     : 1.0
#TITLE       : GM IIIB K373[2][all]
#DATE        : 10-SEP-2025
#TIME        : 18:14
#OWNER       : Unknown
#NPOINTS     : 4096
#NCOLUMNS    : 1
#XUNITS      : eV
#YUNITS      : counts
#DATATYPE    : Y
#XPERCHAN    : 9.99778
#OFFSET      : 1.69135
#BEAMKV      : 20
#SIGNALTYPE  : EDS
#ELEVANGLE   : 35
#AZIMANGLE   : 0
#LIVETIME    : 240.165
#REALTIME    : 260.145
#PROBECUR    : 1.22475
#TAUWIND     : 0
#TDEADLYR    : 0
#TACTLYR     : 0.045
#TALWIND     : 0.025
#CHOFFSET    : 0.0
#XLABEL      : Energy (eV)
#YLABEL      : Counts
#XPOSITION   : 4.35204
#YPOSITION   : 2.3336
#ZPOSITION   : 34.00159
#EDSDET      : SD
##SPECIMEN   : GM IIIB K373[2][all]
##D2STDCMP   : K373,(O:42.34),(Na:10.43),(Si:31.85),(Zn:4.94),(Ba:10.38),(U:0.05)
##DET_HASH   : 12273538-fd48-a23f-0a19-f1e6fa85caef
##CALIB_HASH : 6abaa72c-aa41-8738-0be9-f592914732f3
##WORKING    : 15.0 mm
##DET_NAME   : EDAX All
##DET_MODE   : MediumLE
#SPECTRUM    :
19,
248,
5866,
10227,
82467,
3569,
4424,
25554,
6285,
4094,
4816,
6275,
90759,
41904,
3195,
3206,
4387,
3380,
3213,
3466,
3589,
3189,
3236,
3122,
3085,
3449,
2804,
2786,
3024,
2561,
2498,
3440,
17758,
2529,
5109,
6384,
2496,
4439,
1953,
2278,
2223,
1869,
1746,
1564,
1583,
1516,
1476,
1319,
1392,
1327,
1266,
1201,
1155,
1219,
1103,
1031,
1025,
1007,
950,
944,
955,
2871,
4271,
887,
780,
716,
723,
746,
1222,
948,
692,
633,
614,
590,
619,
550,
547,
494,
487,
471,
445,
452,
418,
428,
379,
391,
356,
347,
330,
288,
288,
289,
261,
263,
270,
255,
219,
220,
208,
201,
210,
179,
173,
153,
147,
152,
146,
146,
117,
113,
95,
98,
117,
82,
87,
87,
80,
71,
81,
45,
52,
48,
61,
30,
44,
45,
43,
29,
24,
22,
27,
23,
16,
25,
16,
8,
11,
14,
9,
5,
10,
1,
4,
1,
1,
0,
1,
0,
0,
0,
1,
1,
0,
0,
0,
0,
2,
0,
0,
0,
0,
0,
0,
0,
0,
0,
0,
0,
0,
1,
0,
0,
0,
0,
0,
2,
0,
0,
0,
0,
0,
0,
0,
0,
0,
0,
0,
0,
0,
0,
0,
0,
0,
0,
0,
0,
0,
0,
0,
0,
0,
0,
0,
0,
0,
0,
0,
0,
0,
0,
0,
0,
0,
0,
0,
0,
0,
0,
0,
0,
0,
0,
0,
0,
0,
0,
0,
0,
0,
0,
0,
0,
0,
0,
0,
0,
0,
0,
0,
0,
0,
0,
0,
0,
0,
0,
0,
0,
0,
0,
0,
0,
0,
0,
0,
0,
0,
0,
0,
0,
0,
0,
0,
0,
0,
0,
0,
0,
0,
0,
0,
0,
0,
0,
0,
0,
0,
0,
0,
0,
0,
0,
0,
0,
0,
0,
0,
0,
0,
0,
0,
0,
0,
0,
#ENDOFDATA   :