File: N132962/Quantification/20 keV/Glass Mount IIIB/GM IIIB K968[3][4].msa
#FORMAT      : EMSA/MAS Spectral Data File
#VERSION     : 1.0
#TITLE       : GM IIIB K968[3][all]
#DATE        : 10-SEP-2025
#TIME        : 16:24
#OWNER       : Unknown
#NPOINTS     : 4096
#NCOLUMNS    : 1
#XUNITS      : eV
#YUNITS      : counts
#DATATYPE    : Y
#XPERCHAN    : 9.99778
#OFFSET      : 1.69135
#BEAMKV      : 20
#SIGNALTYPE  : EDS
#ELEVANGLE   : 35
#AZIMANGLE   : 0
#LIVETIME    : 240.246
#REALTIME    : 266.597
#PROBECUR    : 1.22413
#TAUWIND     : 0
#TDEADLYR    : 0
#TACTLYR     : 0.045
#TALWIND     : 0.025
#CHOFFSET    : 0.0
#XLABEL      : Energy (eV)
#YLABEL      : Counts
#XPOSITION   : 7.10853
#YPOSITION   : 12.25957
#ZPOSITION   : 34.06144
#EDSDET      : SD
##SPECIMEN   : GM IIIB K968[3][all]
##D2STDCMP   : K968,(O:16.62),(Mg:0.08),(P:0.2),(Ti:0.16),(Cr:0.17),(Ni:0.19),(Ge:26.27),(Zr:0.3),(Ba:0.45),(Eu:0.49),(Pb:54.91),(Th:0.08),(U:0.09)
##DET_HASH   : 12273538-fd48-a23f-0a19-f1e6fa85caef
##CALIB_HASH : 6abaa72c-aa41-8738-0be9-f592914732f3
##WORKING    : 15.0 mm
##DET_NAME   : EDAX All
##DET_MODE   : MediumLE
#SPECTRUM    :
23,
560,
11894,
7464,
24772,
8966,
8685,
10120,
26015,
37786,
7825,
8197,
9124,
16911,
9766,
9926,
17898,
128781,
22877,
12378,
6057,
6586,
7874,
6175,
5915,
6015,
5842,
5862,
5469,
5499,
5501,
5345,
7213,
5498,
5525,
5563,
5075,
5055,
5003,
5176,
4765,
4785,
5002,
4360,
4289,
4357,
4760,
4087,
3909,
3880,
3719,
3629,
3503,
4026,
3678,
3329,
3174,
3164,
3142,
3046,
2899,
2879,
2802,
2682,
2693,
2912,
2961,
2445,
2467,
2661,
13842,
13429,
2364,
2300,
3041,
10758,
6015,
2084,
3629,
3031,
1753,
1674,
1600,
1466,
1404,
1332,
1376,
1532,
1379,
1856,
4992,
2099,
1263,
1184,
1018,
950,
904,
765,
773,
801,
740,
679,
648,
667,
684,
826,
747,
622,
595,
557,
469,
431,
449,
430,
365,
340,
334,
309,
275,
288,
247,
260,
273,
234,
216,
179,
177,
172,
160,
146,
157,
126,
91,
98,
84,
74,
67,
40,
42,
36,
33,
21,
11,
2,
9,
4,
1,
6,
4,
7,
3,
5,
6,
4,
6,
1,
3,
5,
1,
1,
4,
3,
4,
2,
5,
2,
1,
2,
1,
3,
1,
2,
1,
1,
0,
3,
0,
2,
2,
2,
1,
4,
1,
1,
0,
1,
0,
3,
1,
0,
2,
1,
1,
0,
0,
1,
0,
0,
0,
0,
0,
1,
1,
0,
0,
1,
0,
0,
0,
0,
0,
0,
0,
0,
1,
0,
0,
0,
0,
0,
0,
0,
0,
0,
0,
0,
0,
0,
0,
0,
0,
0,
0,
0,
0,
0,
0,
0,
0,
0,
0,
0,
0,
0,
0,
0,
0,
0,
0,
0,
0,
0,
0,
0,
0,
0,
0,
0,
0,
0,
0,
0,
0,
0,
0,
0,
0,
0,
0,
0,
0,
0,
0,
0,
0,
0,
0,
0,
0,
0,
0,
0,
0,
0,
0,
0,
0,
0,
0,
0,
0,
0,
0,
0,
#ENDOFDATA   :