File: N132962/Quantification/20 keV/Glass Mount IIIB/GM IIIB K252[1][4].msa
#FORMAT      : EMSA/MAS Spectral Data File
#VERSION     : 1.0
#TITLE       : GM IIIB K252[1][all]
#DATE        : 10-SEP-2025
#TIME        : 19:00
#OWNER       : Unknown
#NPOINTS     : 4096
#NCOLUMNS    : 1
#XUNITS      : eV
#YUNITS      : counts
#DATATYPE    : Y
#XPERCHAN    : 9.99778
#OFFSET      : 1.69135
#BEAMKV      : 20
#SIGNALTYPE  : EDS
#ELEVANGLE   : 35
#AZIMANGLE   : 0
#LIVETIME    : 240.165
#REALTIME    : 261.423
#PROBECUR    : 1.2221
#TAUWIND     : 0
#TDEADLYR    : 0
#TACTLYR     : 0.045
#TALWIND     : 0.025
#CHOFFSET    : 0.0
#XLABEL      : Energy (eV)
#YLABEL      : Counts
#XPOSITION   : 5.61341
#YPOSITION   : 0.69859
#ZPOSITION   : 34.00159
#EDSDET      : SD
##SPECIMEN   : GM IIIB K252[1][all]
##D2STDCMP   : K252,(O:30.83),(Si:18.7),(Mn:3.16),(Co:3.93),(Cu:3.99),(Zn:8.03),(Ba:31.35)
##DET_HASH   : 12273538-fd48-a23f-0a19-f1e6fa85caef
##CALIB_HASH : 6abaa72c-aa41-8738-0be9-f592914732f3
##WORKING    : 15.0 mm
##DET_NAME   : EDAX All
##DET_MODE   : MediumLE
#SPECTRUM    :
23,
356,
7777,
10732,
68724,
7141,
7754,
23385,
4944,
4539,
5196,
6352,
48189,
24160,
4700,
4766,
5348,
5064,
5046,
5155,
5143,
4914,
4904,
4766,
4587,
4549,
4281,
4256,
5537,
4266,
4112,
7203,
54797,
4374,
13145,
17770,
5046,
11294,
3062,
4210,
4314,
3864,
11047,
3101,
2428,
2425,
3355,
2637,
2085,
5855,
4935,
2004,
1960,
1975,
2291,
2380,
1840,
4801,
3751,
1621,
1589,
5059,
7363,
1962,
1902,
1269,
1313,
1307,
2077,
1633,
1183,
1088,
1083,
1093,
1056,
1033,
934,
897,
894,
839,
861,
776,
740,
749,
666,
686,
681,
653,
627,
576,
579,
558,
512,
509,
456,
497,
446,
424,
359,
421,
354,
349,
309,
334,
303,
276,
284,
253,
248,
252,
225,
214,
203,
194,
185,
185,
151,
126,
125,
113,
115,
114,
105,
104,
91,
80,
85,
77,
56,
59,
45,
49,
40,
25,
33,
26,
30,
22,
20,
15,
13,
4,
3,
1,
2,
1,
1,
2,
0,
0,
2,
1,
1,
1,
1,
1,
1,
0,
0,
2,
1,
1,
2,
0,
1,
1,
0,
0,
0,
0,
0,
0,
0,
2,
0,
0,
0,
0,
0,
0,
0,
0,
0,
0,
0,
0,
0,
0,
0,
0,
0,
0,
0,
0,
0,
0,
0,
0,
0,
0,
0,
0,
0,
0,
0,
0,
0,
0,
0,
0,
0,
0,
1,
0,
0,
0,
0,
0,
0,
0,
0,
0,
0,
0,
0,
0,
0,
0,
0,
0,
0,
0,
0,
0,
0,
0,
0,
0,
0,
0,
0,
0,
0,
0,
0,
0,
0,
0,
0,
0,
0,
0,
0,
0,
0,
0,
0,
0,
0,
0,
0,
0,
0,
0,
0,
0,
0,
0,
0,
0,
0,
0,
0,
0,
0,
0,
0,
0,
0,
0,
0,
0,
0,
0,
0,
0,
0,
0,
0,
0,
0,
0,
0,
0,
#ENDOFDATA   :