File: N132962/Quantification/20 keV/Glass Mount IIIB/GM IIIB K508[2][4].msa
#FORMAT      : EMSA/MAS Spectral Data File
#VERSION     : 1.0
#TITLE       : GM IIIB K508[2][all]
#DATE        : 11-SEP-2025
#TIME        : 09:31
#OWNER       : Unknown
#NPOINTS     : 4096
#NCOLUMNS    : 1
#XUNITS      : eV
#YUNITS      : counts
#DATATYPE    : Y
#XPERCHAN    : 9.99778
#OFFSET      : 1.69135
#BEAMKV      : 20
#SIGNALTYPE  : EDS
#ELEVANGLE   : 35
#AZIMANGLE   : 0
#LIVETIME    : 240.135
#REALTIME    : 258.9865
#PROBECUR    : 1.22303
#TAUWIND     : 0
#TDEADLYR    : 0
#TACTLYR     : 0.045
#TALWIND     : 0.025
#CHOFFSET    : 0.0
#XLABEL      : Energy (eV)
#YLABEL      : Counts
#XPOSITION   : 8.54151
#YPOSITION   : 9.69509
#ZPOSITION   : 34.00161
#EDSDET      : SD
##SPECIMEN   : GM IIIB K508[2][all]
##D2STDCMP   : K508,(B:9.26),(O:41.14),(Si:12.06),(Sr:37.54)
##DET_HASH   : 12273538-fd48-a23f-0a19-f1e6fa85caef
##CALIB_HASH : 6abaa72c-aa41-8738-0be9-f592914732f3
##WORKING    : 15.0 mm
##DET_NAME   : EDAX All
##DET_MODE   : MediumLE
#SPECTRUM    :
22,
828,
5665,
6162,
43213,
3600,
4231,
5017,
5868,
6465,
7215,
11883,
52903,
225422,
13886,
3375,
4100,
3512,
3409,
3443,
3477,
3504,
3426,
3379,
3363,
3553,
3757,
3174,
2969,
2890,
2824,
2716,
2935,
2614,
2588,
2416,
2396,
2359,
2281,
2241,
2085,
2002,
1872,
1976,
1849,
1903,
1916,
1627,
1720,
1559,
1653,
1509,
1451,
1471,
1401,
1316,
1315,
1270,
1201,
1191,
1108,
1068,
1137,
1055,
1016,
1022,
971,
864,
896,
841,
802,
816,
747,
746,
741,
695,
693,
646,
574,
610,
638,
547,
477,
526,
514,
487,
487,
474,
430,
402,
386,
346,
386,
325,
341,
319,
297,
312,
255,
288,
867,
1933,
569,
225,
201,
203,
157,
186,
154,
154,
179,
124,
233,
351,
187,
145,
89,
84,
84,
84,
67,
81,
67,
64,
54,
49,
48,
45,
36,
44,
39,
29,
25,
22,
21,
22,
14,
6,
7,
4,
4,
3,
2,
1,
1,
1,
1,
0,
0,
0,
0,
0,
1,
0,
1,
0,
0,
0,
0,
0,
0,
0,
0,
0,
0,
0,
0,
1,
0,
0,
0,
0,
0,
1,
0,
0,
0,
0,
0,
0,
0,
2,
0,
0,
0,
0,
0,
0,
0,
0,
0,
0,
0,
1,
0,
1,
0,
0,
0,
0,
0,
0,
0,
0,
0,
0,
0,
0,
0,
0,
0,
0,
0,
0,
0,
0,
0,
0,
0,
0,
0,
0,
0,
0,
0,
0,
0,
0,
0,
0,
0,
0,
0,
0,
0,
0,
0,
0,
0,
0,
0,
0,
0,
0,
0,
0,
0,
0,
0,
0,
0,
0,
0,
0,
0,
0,
0,
0,
0,
0,
0,
0,
0,
0,
0,
0,
0,
0,
0,
0,
0,
0,
0,
0,
0,
0,
0,
0,
0,
0,
0,
0,
0,
0,
0,
0,
0,
0,
0,
0,
0,
0,
0,
0,
#ENDOFDATA   :