File: N132962/Quantification/20 keV/Glass Mount IIIB/GM IIIA K1010[0][4].msa
#FORMAT      : EMSA/MAS Spectral Data File
#VERSION     : 1.0
#TITLE       : K1010 IIIA K1010[0][all]
#DATE        : 18-SEP-2025
#TIME        : 10:06
#OWNER       : Unknown
#NPOINTS     : 4096
#NCOLUMNS    : 1
#XUNITS      : eV
#YUNITS      : counts
#DATATYPE    : Y
#XPERCHAN    : 9.99778
#OFFSET      : 1.69135
#BEAMKV      : 20
#SIGNALTYPE  : EDS
#ELEVANGLE   : 35
#AZIMANGLE   : 0
#LIVETIME    : 240.15
#REALTIME    : 259.946
#PROBECUR    : 1.21237
#TAUWIND     : 0
#TDEADLYR    : 0
#TACTLYR     : 0.045
#TALWIND     : 0.025
#CHOFFSET    : 0.0
#XLABEL      : Energy (eV)
#YLABEL      : Counts
#XPOSITION   : 10.53362
#YPOSITION   : 15.55879
#ZPOSITION   : 37.3512
#EDSDET      : SD
##SPECIMEN   : K1010 IIIA K1010[0][all]
##DET_HASH   : 12273538-fd48-a23f-0a19-f1e6fa85caef
##CALIB_HASH : 6abaa72c-aa41-8738-0be9-f592914732f3
##WORKING    : 15.0 mm
##DET_NAME   : EDAX All
##DET_MODE   : MediumLE
#SPECTRUM    :
30,
263,
7139,
6477,
46556,
3665,
5063,
5242,
8764,
8150,
11952,
35982,
70036,
71937,
6306,
3527,
4251,
3603,
3626,
3599,
3514,
3786,
3572,
4931,
9842,
4077,
23792,
10125,
3863,
6168,
3578,
4630,
2869,
6177,
3085,
2907,
3532,
2544,
2629,
2346,
2062,
2454,
3698,
3453,
2044,
1800,
2855,
1946,
2519,
1945,
1555,
1653,
1439,
1532,
1377,
1370,
1314,
1106,
1249,
1172,
1064,
1065,
1003,
917,
926,
954,
890,
869,
805,
866,
1318,
1261,
740,
716,
703,
668,
635,
623,
689,
668,
538,
575,
503,
502,
472,
412,
390,
448,
408,
396,
405,
371,
343,
321,
326,
429,
389,
299,
241,
231,
367,
700,
327,
195,
187,
188,
175,
192,
154,
136,
133,
129,
137,
197,
118,
113,
99,
65,
73,
66,
71,
60,
62,
59,
50,
51,
46,
35,
33,
31,
34,
30,
21,
23,
16,
12,
14,
14,
4,
9,
10,
1,
0,
1,
1,
0,
0,
0,
1,
0,
1,
0,
1,
1,
0,
0,
0,
2,
0,
0,
0,
1,
0,
1,
0,
0,
1,
0,
0,
1,
0,
0,
1,
0,
0,
0,
0,
0,
0,
0,
0,
0,
0,
0,
0,
0,
0,
0,
0,
0,
0,
0,
0,
0,
0,
0,
0,
0,
0,
0,
0,
0,
0,
0,
0,
0,
0,
0,
1,
0,
0,
0,
0,
0,
0,
0,
0,
0,
0,
0,
0,
0,
0,
0,
0,
0,
0,
0,
0,
0,
0,
0,
0,
0,
0,
0,
0,
0,
0,
0,
0,
0,
0,
0,
0,
0,
0,
0,
0,
0,
0,
0,
0,
0,
0,
0,
0,
0,
0,
0,
0,
0,
0,
0,
0,
0,
0,
0,
0,
0,
0,
0,
0,
0,
0,
0,
0,
0,
0,
0,
0,
0,
0,
0,
0,
0,
0,
0,
0,
0,
0,
0,
0,
0,
#ENDOFDATA   :