File: N132962/Quantification/20 keV/Glass Mount IIIB/GM IIIB K253[4][4].msa
#FORMAT      : EMSA/MAS Spectral Data File
#VERSION     : 1.0
#TITLE       : GM IIIB K253[4][all]
#DATE        : 10-SEP-2025
#TIME        : 19:09
#OWNER       : Unknown
#NPOINTS     : 4096
#NCOLUMNS    : 1
#XUNITS      : eV
#YUNITS      : counts
#DATATYPE    : Y
#XPERCHAN    : 9.99778
#OFFSET      : 1.69135
#BEAMKV      : 20
#SIGNALTYPE  : EDS
#ELEVANGLE   : 35
#AZIMANGLE   : 0
#LIVETIME    : 240.185
#REALTIME    : 261.553
#PROBECUR    : 1.2221
#TAUWIND     : 0
#TDEADLYR    : 0
#TACTLYR     : 0.045
#TALWIND     : 0.025
#CHOFFSET    : 0.0
#XLABEL      : Energy (eV)
#YLABEL      : Counts
#XPOSITION   : 3.19293
#YPOSITION   : 0.59418
#ZPOSITION   : 34.00159
#EDSDET      : SD
##SPECIMEN   : GM IIIB K253[4][all]
##D2STDCMP   : K253,(O:31.64),(Si:18.7),(Mn:6.32),(Co:1.97),(Cu:2.0),(Zn:8.03),(Ba:31.35)
##DET_HASH   : 12273538-fd48-a23f-0a19-f1e6fa85caef
##CALIB_HASH : 6abaa72c-aa41-8738-0be9-f592914732f3
##WORKING    : 15.0 mm
##DET_NAME   : EDAX All
##DET_MODE   : MediumLE
#SPECTRUM    :
24,
316,
7818,
10819,
70648,
6660,
6630,
21980,
5075,
4621,
5231,
6295,
48460,
24902,
4659,
4779,
5232,
4899,
4984,
5205,
4924,
4805,
4973,
4770,
4624,
4702,
4511,
4274,
5605,
4377,
4048,
7209,
55397,
4464,
13332,
18007,
5056,
11247,
3176,
4308,
4370,
3880,
18558,
3863,
2374,
2440,
4029,
2848,
2172,
4150,
3704,
2056,
1886,
1961,
2058,
2120,
1681,
3412,
2794,
1641,
1581,
5006,
7573,
1753,
1693,
1374,
1338,
1340,
2023,
1637,
1197,
1094,
1095,
1064,
1091,
926,
966,
903,
882,
869,
825,
788,
796,
731,
762,
720,
689,
641,
655,
595,
571,
565,
527,
499,
475,
464,
444,
396,
411,
358,
371,
324,
378,
285,
273,
286,
293,
256,
244,
252,
211,
204,
180,
197,
166,
157,
148,
151,
117,
139,
131,
105,
115,
76,
92,
87,
74,
64,
61,
49,
70,
37,
47,
51,
37,
30,
24,
21,
18,
13,
7,
6,
6,
4,
1,
1,
2,
0,
3,
2,
2,
1,
0,
0,
2,
1,
0,
1,
1,
0,
0,
0,
1,
1,
0,
0,
1,
0,
0,
0,
2,
1,
0,
0,
0,
0,
0,
0,
1,
0,
0,
0,
0,
1,
0,
0,
0,
1,
0,
0,
0,
0,
0,
0,
0,
0,
0,
0,
0,
0,
0,
0,
0,
0,
0,
0,
0,
1,
0,
0,
0,
0,
0,
0,
0,
0,
0,
0,
0,
0,
0,
0,
0,
0,
1,
0,
0,
0,
0,
0,
0,
0,
0,
0,
0,
0,
0,
0,
0,
0,
0,
0,
0,
0,
0,
0,
0,
0,
0,
0,
0,
0,
0,
0,
0,
0,
0,
0,
0,
0,
0,
0,
0,
0,
0,
0,
0,
0,
0,
0,
0,
0,
0,
0,
0,
0,
0,
0,
0,
0,
0,
0,
0,
0,
0,
0,
0,
0,
0,
0,
0,
0,
0,
0,
#ENDOFDATA   :