File: N132962/Quantification/20 keV/Glass Mount IIIB/GM IIIB K919[0][4].msa
#FORMAT      : EMSA/MAS Spectral Data File
#VERSION     : 1.0
#TITLE       : GM IIIB K919[0][all]
#DATE        : 10-SEP-2025
#TIME        : 16:02
#OWNER       : Unknown
#NPOINTS     : 4096
#NCOLUMNS    : 1
#XUNITS      : eV
#YUNITS      : counts
#DATATYPE    : Y
#XPERCHAN    : 9.99778
#OFFSET      : 1.69135
#BEAMKV      : 20
#SIGNALTYPE  : EDS
#ELEVANGLE   : 35
#AZIMANGLE   : 0
#LIVETIME    : 239.8969
#REALTIME    : 261.298
#PROBECUR    : 1.22368
#TAUWIND     : 0
#TDEADLYR    : 0
#TACTLYR     : 0.045
#TALWIND     : 0.025
#CHOFFSET    : 0.0
#XLABEL      : Energy (eV)
#YLABEL      : Counts
#XPOSITION   : 13.80211
#YPOSITION   : 11.98048
#ZPOSITION   : 34.06144
#EDSDET      : SD
##SPECIMEN   : GM IIIB K919[0][all]
##D2STDCMP   : K919,(O:31.86),(Si:20.1),(Cr:0.68),(Mn:1.9),(Fe:2.1),(Co:2.13),(Ni:2.36),(Cu:2.4),(Ba:34.03),(Ce:2.44)
##DET_HASH   : 12273538-fd48-a23f-0a19-f1e6fa85caef
##CALIB_HASH : 6abaa72c-aa41-8738-0be9-f592914732f3
##WORKING    : 15.0 mm
##DET_NAME   : EDAX All
##DET_MODE   : MediumLE
#SPECTRUM    :
19,
347,
8057,
11133,
72858,
10462,
10506,
7556,
4667,
4981,
5440,
6505,
52190,
26623,
4710,
4895,
5407,
5072,
5027,
5241,
5107,
4990,
4914,
4641,
4572,
4638,
4497,
4211,
5524,
4404,
4107,
7567,
57587,
4448,
14940,
20485,
5188,
12108,
4850,
5839,
4908,
3708,
7882,
3335,
2465,
3530,
6406,
2298,
2193,
4350,
4107,
2203,
1975,
4723,
3303,
2177,
1806,
3648,
2994,
2061,
1597,
1493,
1503,
1606,
1660,
1297,
1253,
1252,
1191,
1215,
1179,
1090,
1117,
1017,
1060,
995,
943,
932,
913,
843,
829,
807,
850,
751,
714,
721,
741,
621,
709,
572,
586,
565,
549,
505,
458,
449,
439,
405,
410,
383,
367,
347,
384,
312,
288,
268,
284,
271,
240,
231,
236,
193,
170,
202,
199,
183,
154,
161,
113,
131,
123,
85,
97,
103,
86,
74,
68,
73,
75,
42,
47,
58,
38,
39,
34,
28,
22,
26,
15,
13,
11,
3,
3,
4,
3,
2,
1,
1,
1,
1,
1,
2,
3,
0,
0,
2,
1,
0,
0,
0,
1,
1,
1,
0,
1,
0,
0,
0,
0,
0,
0,
0,
0,
0,
0,
0,
0,
1,
0,
1,
0,
1,
1,
1,
0,
0,
0,
0,
1,
0,
0,
0,
0,
0,
0,
0,
0,
0,
0,
1,
0,
2,
0,
0,
0,
0,
0,
0,
0,
0,
0,
0,
0,
0,
0,
0,
0,
0,
0,
0,
0,
0,
0,
0,
0,
0,
0,
0,
0,
0,
0,
0,
0,
0,
0,
0,
0,
0,
0,
0,
0,
0,
0,
0,
0,
0,
0,
0,
0,
0,
0,
0,
0,
0,
0,
0,
0,
0,
0,
0,
0,
0,
0,
0,
0,
0,
0,
0,
0,
0,
0,
0,
0,
0,
0,
0,
0,
0,
0,
0,
0,
0,
0,
0,
0,
0,
0,
0,
0,
0,
0,
0,
0,
0,
#ENDOFDATA   :