File: N132962/Quantification/20 keV/Glass Mount IIIB/GM IIIB K411[0][4].msa
#FORMAT      : EMSA/MAS Spectral Data File
#VERSION     : 1.0
#TITLE       : GM IIIB K411[0][all]
#DATE        : 10-SEP-2025
#TIME        : 14:22
#OWNER       : Unknown
#NPOINTS     : 4096
#NCOLUMNS    : 1
#XUNITS      : eV
#YUNITS      : counts
#DATATYPE    : Y
#XPERCHAN    : 9.99778
#OFFSET      : 1.69135
#BEAMKV      : 20
#SIGNALTYPE  : EDS
#ELEVANGLE   : 35
#AZIMANGLE   : 0
#LIVETIME    : 240.211
#REALTIME    : 258.86
#PROBECUR    : 1.22574
#TAUWIND     : 0
#TDEADLYR    : 0
#TACTLYR     : 0.045
#TALWIND     : 0.025
#CHOFFSET    : 0.0
#XLABEL      : Energy (eV)
#YLABEL      : Counts
#XPOSITION   : 5.11244
#YPOSITION   : 5.11443
#ZPOSITION   : 34.06144
#EDSDET      : SD
##SPECIMEN   : GM IIIB K411[0][all]
##D2STDCMP   : K411,(O:42.3664),(Mg:8.8466),(Si:25.3818),(Ca:11.0563),(Fe:11.2088),5.0
##DET_HASH   : 12273538-fd48-a23f-0a19-f1e6fa85caef
##CALIB_HASH : 6abaa72c-aa41-8738-0be9-f592914732f3
##WORKING    : 15.0 mm
##DET_NAME   : EDAX All
##DET_MODE   : MediumLE
#SPECTRUM    :
34,
204,
7000,
6877,
56066,
12144,
3013,
3575,
4699,
74969,
4629,
5649,
73581,
34835,
3846,
3298,
3844,
3305,
3264,
3109,
3214,
3169,
3029,
2896,
2767,
3414,
34482,
12760,
3748,
7079,
2286,
2024,
2152,
2093,
1904,
1923,
1816,
1704,
1597,
1737,
1585,
1590,
1666,
1483,
1545,
7099,
19721,
1451,
1273,
1219,
3228,
2121,
1004,
1112,
964,
952,
913,
860,
858,
867,
826,
718,
762,
740,
690,
673,
644,
615,
630,
579,
573,
566,
562,
521,
521,
458,
509,
434,
462,
412,
378,
355,
360,
342,
347,
324,
312,
298,
268,
278,
244,
245,
253,
228,
245,
199,
189,
218,
192,
155,
131,
158,
144,
150,
146,
103,
138,
124,
92,
109,
96,
89,
73,
77,
67,
62,
80,
56,
48,
47,
51,
39,
35,
40,
36,
37,
39,
28,
18,
34,
20,
18,
24,
12,
14,
9,
9,
5,
6,
5,
4,
2,
1,
0,
1,
1,
0,
0,
0,
2,
0,
0,
0,
0,
1,
0,
0,
0,
0,
0,
0,
0,
0,
0,
0,
0,
0,
0,
0,
0,
0,
0,
0,
0,
1,
0,
0,
0,
0,
0,
0,
0,
0,
0,
0,
0,
0,
0,
0,
0,
1,
0,
0,
0,
0,
1,
0,
0,
0,
0,
0,
0,
0,
0,
0,
0,
0,
0,
0,
0,
1,
0,
0,
0,
0,
0,
0,
0,
0,
0,
0,
0,
0,
0,
0,
0,
0,
0,
0,
0,
0,
0,
0,
0,
0,
0,
0,
0,
0,
0,
0,
0,
0,
0,
0,
0,
0,
0,
0,
0,
0,
0,
0,
0,
0,
0,
0,
0,
0,
0,
0,
0,
0,
0,
0,
0,
0,
0,
0,
0,
0,
0,
0,
0,
0,
0,
0,
0,
0,
0,
0,
0,
0,
0,
0,
0,
0,
0,
0,
0,
0,
0,
0,
0,
#ENDOFDATA   :