File: N132962/Quantification/20 keV/Glass Mount IIIB/GM IIIB K240[2][4].msa
#FORMAT      : EMSA/MAS Spectral Data File
#VERSION     : 1.0
#TITLE       : GM IIIB K240[2][all]
#DATE        : 10-SEP-2025
#TIME        : 18:43
#OWNER       : Unknown
#NPOINTS     : 4096
#NCOLUMNS    : 1
#XUNITS      : eV
#YUNITS      : counts
#DATATYPE    : Y
#XPERCHAN    : 9.99778
#OFFSET      : 1.69135
#BEAMKV      : 20
#SIGNALTYPE  : EDS
#ELEVANGLE   : 35
#AZIMANGLE   : 0
#LIVETIME    : 240.111
#REALTIME    : 259.886
#PROBECUR    : 1.2221
#TAUWIND     : 0
#TDEADLYR    : 0
#TACTLYR     : 0.045
#TALWIND     : 0.025
#CHOFFSET    : 0.0
#XLABEL      : Energy (eV)
#YLABEL      : Counts
#XPOSITION   : 12.21166
#YPOSITION   : 0.91719
#ZPOSITION   : 34.00159
#EDSDET      : SD
##SPECIMEN   : GM IIIB K240[2][all]
##D2STDCMP   : K240,(O:34.0),(Mg:3.02),(Si:18.7),(Ti:6.0),(Zn:4.02),(Zr:7.4),(Ba:26.87)
##DET_HASH   : 12273538-fd48-a23f-0a19-f1e6fa85caef
##CALIB_HASH : 6abaa72c-aa41-8738-0be9-f592914732f3
##WORKING    : 15.0 mm
##DET_NAME   : EDAX All
##DET_MODE   : MediumLE
#SPECTRUM    :
18,
365,
7890,
11428,
53140,
4639,
5338,
13364,
5237,
22551,
5683,
6549,
51682,
26768,
7735,
18154,
6493,
4640,
4857,
4589,
4544,
4391,
4440,
4359,
4204,
4176,
4106,
3862,
4895,
3789,
3687,
6409,
65136,
6159,
11260,
17394,
4771,
9077,
2956,
3625,
3746,
3086,
2738,
2331,
2250,
2304,
2243,
2097,
1913,
1882,
1880,
1793,
1781,
1804,
1722,
1517,
1666,
1528,
1548,
1464,
1419,
3011,
4096,
1334,
1324,
1267,
1174,
1204,
1571,
1278,
993,
1151,
1016,
916,
915,
871,
864,
855,
795,
784,
741,
704,
705,
675,
649,
606,
630,
621,
536,
524,
495,
487,
485,
409,
451,
430,
364,
372,
347,
355,
302,
318,
317,
258,
251,
261,
211,
265,
228,
226,
187,
187,
257,
217,
176,
152,
124,
127,
121,
108,
95,
96,
73,
80,
56,
77,
78,
62,
67,
41,
40,
34,
44,
38,
23,
22,
18,
14,
17,
9,
10,
9,
0,
0,
0,
2,
2,
1,
1,
0,
1,
2,
2,
1,
1,
0,
0,
1,
1,
0,
0,
0,
0,
0,
1,
1,
0,
0,
1,
0,
0,
0,
0,
0,
0,
0,
0,
0,
0,
0,
0,
0,
0,
0,
0,
0,
0,
0,
1,
0,
1,
0,
0,
0,
0,
0,
0,
0,
1,
0,
0,
0,
0,
0,
0,
0,
0,
0,
0,
0,
0,
0,
0,
0,
0,
0,
0,
0,
0,
1,
0,
0,
0,
0,
0,
0,
0,
0,
0,
0,
0,
0,
0,
0,
0,
0,
0,
0,
0,
0,
0,
0,
0,
0,
0,
0,
0,
0,
0,
0,
0,
0,
0,
0,
0,
0,
0,
0,
0,
0,
0,
0,
0,
0,
0,
0,
0,
0,
0,
0,
0,
0,
0,
0,
0,
0,
0,
0,
0,
0,
0,
0,
0,
0,
0,
0,
0,
0,
0,
0,
0,
0,
0,
0,
#ENDOFDATA   :