File: N132962/Quantification/20 keV/Glass Mount IIIB/GM IIIB K1070[2][4].msa
#FORMAT      : EMSA/MAS Spectral Data File
#VERSION     : 1.0
#TITLE       : GM IIIB K1070[2][all]
#DATE        : 10-SEP-2025
#TIME        : 16:52
#OWNER       : Unknown
#NPOINTS     : 4096
#NCOLUMNS    : 1
#XUNITS      : eV
#YUNITS      : counts
#DATATYPE    : Y
#XPERCHAN    : 9.99778
#OFFSET      : 1.69135
#BEAMKV      : 20
#SIGNALTYPE  : EDS
#ELEVANGLE   : 35
#AZIMANGLE   : 0
#LIVETIME    : 240.166
#REALTIME    : 260.002
#PROBECUR    : 1.22416
#TAUWIND     : 0
#TDEADLYR    : 0
#TACTLYR     : 0.045
#TALWIND     : 0.025
#CHOFFSET    : 0.0
#XLABEL      : Energy (eV)
#YLABEL      : Counts
#XPOSITION   : 1.32921
#YPOSITION   : 13.46774
#ZPOSITION   : 34.06144
#EDSDET      : SD
##SPECIMEN   : GM IIIB K1070[2][all]
##D2STDCMP   : K1070,(O:34.31),(Mg:7.54),(Si:18.7),(Ca:8.93),(Zn:10.04),(Ba:11.2),(Pb:9.28)
##DET_HASH   : 12273538-fd48-a23f-0a19-f1e6fa85caef
##CALIB_HASH : 6abaa72c-aa41-8738-0be9-f592914732f3
##WORKING    : 15.0 mm
##DET_NAME   : EDAX All
##DET_MODE   : MediumLE
#SPECTRUM    :
20,
254,
9101,
7118,
47339,
4489,
5836,
27719,
6002,
52744,
5220,
6298,
52244,
27316,
4947,
4584,
6380,
21373,
6519,
5467,
4159,
4306,
4561,
3888,
3782,
4100,
29569,
12005,
5114,
7317,
3324,
4168,
19738,
3151,
6037,
7561,
3309,
5248,
2589,
2995,
2940,
2620,
2357,
2129,
2029,
2099,
2173,
1939,
1862,
1847,
1787,
1733,
1642,
1742,
1640,
1545,
1482,
1486,
1443,
1388,
1386,
5663,
8354,
1324,
1164,
1199,
1273,
1138,
2165,
1458,
998,
956,
903,
877,
1034,
1920,
1305,
764,
740,
758,
715,
700,
658,
639,
600,
613,
593,
548,
492,
589,
942,
628,
443,
421,
420,
356,
351,
341,
343,
311,
301,
266,
271,
228,
237,
252,
248,
229,
207,
181,
148,
156,
167,
138,
140,
105,
117,
112,
115,
96,
95,
78,
74,
87,
75,
58,
48,
55,
68,
46,
49,
48,
23,
32,
25,
21,
17,
20,
8,
8,
12,
6,
2,
2,
2,
2,
0,
1,
0,
0,
1,
2,
1,
0,
0,
0,
0,
0,
0,
1,
0,
0,
0,
0,
1,
0,
0,
0,
0,
0,
1,
0,
0,
0,
0,
0,
0,
0,
0,
0,
0,
0,
0,
0,
0,
1,
0,
0,
0,
0,
1,
0,
0,
0,
0,
1,
0,
0,
0,
0,
0,
0,
0,
1,
0,
0,
0,
0,
1,
0,
0,
0,
0,
0,
0,
0,
0,
0,
0,
0,
0,
0,
0,
0,
0,
0,
0,
0,
0,
0,
0,
0,
0,
0,
0,
0,
0,
0,
0,
0,
0,
0,
0,
0,
0,
0,
0,
0,
0,
0,
0,
0,
0,
0,
0,
0,
0,
0,
0,
0,
0,
0,
0,
0,
0,
0,
0,
0,
0,
0,
0,
0,
0,
0,
0,
0,
0,
0,
0,
0,
0,
0,
0,
0,
0,
0,
0,
0,
0,
0,
0,
0,
0,
0,
#ENDOFDATA   :