File: N132962/Quantification/20 keV/Glass Mount IIIB/GM IIIB K412[1][4].msa
#FORMAT      : EMSA/MAS Spectral Data File
#VERSION     : 1.0
#TITLE       : GM IIIB K412[1][all]
#DATE        : 10-SEP-2025
#TIME        : 14:18
#OWNER       : Unknown
#NPOINTS     : 4096
#NCOLUMNS    : 1
#XUNITS      : eV
#YUNITS      : counts
#DATATYPE    : Y
#XPERCHAN    : 9.99778
#OFFSET      : 1.69135
#BEAMKV      : 20
#SIGNALTYPE  : EDS
#ELEVANGLE   : 35
#AZIMANGLE   : 0
#LIVETIME    : 240.14
#REALTIME    : 258.359
#PROBECUR    : 1.22574
#TAUWIND     : 0
#TDEADLYR    : 0
#TACTLYR     : 0.045
#TALWIND     : 0.025
#CHOFFSET    : 0.0
#XLABEL      : Energy (eV)
#YLABEL      : Counts
#XPOSITION   : 3.15456
#YPOSITION   : 4.82671
#ZPOSITION   : 34.06144
#EDSDET      : SD
##SPECIMEN   : GM IIIB K412[1][all]
##D2STDCMP   : K412,(O:42.7576),(Mg:11.6568),(Al:4.9062),(Si:21.1983),(Ca:10.8991),(Fe:7.742)
##DET_HASH   : 12273538-fd48-a23f-0a19-f1e6fa85caef
##CALIB_HASH : 6abaa72c-aa41-8738-0be9-f592914732f3
##WORKING    : 15.0 mm
##DET_NAME   : EDAX All
##DET_MODE   : MediumLE
#SPECTRUM    :
18,
198,
7830,
6837,
56037,
9583,
3184,
3810,
5082,
101096,
6996,
17892,
57965,
27801,
3753,
3019,
3618,
3242,
3187,
3143,
3034,
3111,
2925,
2819,
2765,
3211,
33425,
12377,
3642,
6800,
2193,
1966,
2180,
1897,
1767,
1862,
1826,
1672,
1569,
1649,
1465,
1371,
1612,
1417,
1414,
5330,
13893,
1324,
1147,
1225,
2538,
1740,
1038,
1033,
953,
888,
862,
890,
816,
822,
807,
708,
704,
681,
675,
620,
579,
590,
577,
610,
529,
535,
528,
446,
461,
471,
447,
433,
407,
389,
364,
339,
336,
340,
355,
286,
326,
275,
259,
273,
274,
234,
220,
203,
195,
205,
193,
171,
172,
157,
141,
144,
124,
132,
95,
115,
94,
105,
86,
85,
70,
80,
79,
71,
56,
64,
54,
38,
47,
44,
42,
36,
43,
45,
30,
28,
25,
30,
24,
23,
20,
17,
19,
12,
11,
12,
4,
12,
4,
5,
4,
3,
1,
0,
0,
0,
0,
1,
0,
0,
0,
0,
0,
0,
0,
0,
0,
0,
0,
0,
0,
0,
0,
0,
0,
1,
0,
0,
0,
0,
0,
0,
0,
0,
0,
0,
0,
0,
0,
0,
0,
0,
0,
0,
0,
0,
0,
0,
0,
0,
0,
0,
0,
0,
0,
0,
0,
0,
0,
0,
0,
0,
0,
0,
0,
0,
0,
0,
0,
0,
0,
0,
0,
0,
0,
0,
0,
0,
0,
0,
0,
0,
0,
0,
0,
0,
0,
0,
0,
0,
0,
0,
0,
0,
0,
0,
0,
0,
0,
0,
0,
0,
0,
0,
0,
0,
0,
0,
0,
0,
0,
0,
0,
0,
0,
0,
0,
0,
0,
0,
0,
0,
0,
0,
0,
0,
0,
0,
0,
0,
0,
0,
0,
0,
0,
0,
0,
0,
0,
0,
0,
0,
0,
0,
0,
0,
0,
0,
0,
0,
0,
0,
0,
0,
#ENDOFDATA   :