File: N132962/Quantification/20 keV/Glass Mount IIIB/GM IIIB K523[3][4].msa
#FORMAT      : EMSA/MAS Spectral Data File
#VERSION     : 1.0
#TITLE       : GM IIIB K523[3][all]
#DATE        : 11-SEP-2025
#TIME        : 09:16
#OWNER       : Unknown
#NPOINTS     : 4096
#NCOLUMNS    : 1
#XUNITS      : eV
#YUNITS      : counts
#DATATYPE    : Y
#XPERCHAN    : 9.99778
#OFFSET      : 1.69135
#BEAMKV      : 20
#SIGNALTYPE  : EDS
#ELEVANGLE   : 35
#AZIMANGLE   : 0
#LIVETIME    : 240.228
#REALTIME    : 267.291
#PROBECUR    : 1.22303
#TAUWIND     : 0
#TDEADLYR    : 0
#TACTLYR     : 0.045
#TALWIND     : 0.025
#CHOFFSET    : 0.0
#XLABEL      : Energy (eV)
#YLABEL      : Counts
#XPOSITION   : 1.57534
#YPOSITION   : 9.64171
#ZPOSITION   : 34.00161
#EDSDET      : SD
##SPECIMEN   : GM IIIB K523[3][all]
##D2STDCMP   : K523,(O:20.71),(Mg:0.1),(Si:12.9),(P:0.25),(Ti:0.19),(Cr:0.21),(Ni:0.24),(Ge:0.29),(Zr:0.36),(Ba:0.55),(Eu:0.6),(Pb:63.41),(Th:0.1),(U:0.11)
##DET_HASH   : 12273538-fd48-a23f-0a19-f1e6fa85caef
##CALIB_HASH : 6abaa72c-aa41-8738-0be9-f592914732f3
##WORKING    : 15.0 mm
##DET_NAME   : EDAX All
##DET_MODE   : MediumLE
#SPECTRUM    :
17,
568,
11637,
7635,
28308,
8108,
7837,
7869,
9212,
10602,
10186,
11229,
50548,
38564,
10122,
10542,
19813,
151978,
25495,
12503,
5671,
6253,
7573,
5777,
5435,
5606,
5387,
5487,
5175,
5488,
5344,
5146,
7191,
5108,
5287,
5327,
4753,
4875,
4825,
4929,
4377,
4521,
4872,
4170,
4015,
4112,
4494,
3872,
3929,
3725,
3472,
3500,
3395,
3919,
3436,
3286,
3096,
3092,
2893,
3049,
2799,
2677,
2653,
2638,
2495,
2866,
2887,
2400,
2396,
2318,
2309,
2269,
2039,
2056,
3137,
11656,
6366,
1882,
1772,
1696,
1668,
1609,
1484,
1504,
1338,
1408,
1393,
1413,
1402,
1926,
5324,
2233,
1220,
1257,
957,
927,
903,
863,
813,
805,
751,
713,
704,
633,
602,
936,
783,
528,
595,
547,
440,
440,
403,
380,
350,
327,
311,
297,
338,
275,
269,
258,
229,
219,
203,
179,
158,
161,
148,
151,
114,
93,
91,
80,
84,
79,
52,
48,
47,
33,
25,
22,
13,
2,
6,
5,
6,
3,
3,
0,
5,
2,
2,
4,
1,
2,
2,
3,
3,
3,
1,
1,
0,
2,
6,
1,
3,
0,
0,
1,
4,
3,
0,
3,
3,
1,
2,
0,
1,
2,
1,
0,
0,
2,
1,
2,
0,
2,
1,
0,
0,
0,
0,
1,
0,
0,
0,
0,
0,
1,
0,
0,
0,
0,
0,
0,
1,
1,
0,
0,
1,
1,
0,
2,
0,
0,
0,
0,
0,
1,
0,
0,
0,
0,
0,
0,
0,
0,
0,
0,
0,
0,
0,
0,
0,
0,
0,
0,
0,
0,
0,
0,
0,
0,
0,
0,
0,
0,
0,
0,
0,
0,
0,
0,
0,
0,
0,
0,
0,
0,
0,
0,
0,
0,
0,
0,
0,
0,
0,
0,
0,
0,
0,
0,
0,
0,
0,
0,
0,
0,
0,
0,
0,
0,
0,
0,
0,
0,
0,
0,
0,
0,
0,
0,
#ENDOFDATA   :