File: N132962/Quantification/20 keV/Glass Mount IIIB/GM IIIB K978[3][4].msa
#FORMAT      : EMSA/MAS Spectral Data File
#VERSION     : 1.0
#TITLE       : GM IIIB K978[3][all]
#DATE        : 10-SEP-2025
#TIME        : 16:35
#OWNER       : Unknown
#NPOINTS     : 4096
#NCOLUMNS    : 1
#XUNITS      : eV
#YUNITS      : counts
#DATATYPE    : Y
#XPERCHAN    : 9.99778
#OFFSET      : 1.69135
#BEAMKV      : 20
#SIGNALTYPE  : EDS
#ELEVANGLE   : 35
#AZIMANGLE   : 0
#LIVETIME    : 240.132
#REALTIME    : 259.758
#PROBECUR    : 1.22413
#TAUWIND     : 0
#TDEADLYR    : 0
#TACTLYR     : 0.045
#TALWIND     : 0.025
#CHOFFSET    : 0.0
#XLABEL      : Energy (eV)
#YLABEL      : Counts
#XPOSITION   : 0.19292
#YPOSITION   : 11.49811
#ZPOSITION   : 34.06144
#EDSDET      : SD
##SPECIMEN   : GM IIIB K978[3][all]
##D2STDCMP   : K978,(O:39.39),(Mg:1.36),(Al:8.92),(Si:21.02),(K:1.87),(Ca:6.75),(Ti:0.67),(Rb:2.06),(Sr:10.05),(Cs:2.12),(La:1.92),(Eu:1.94),(Gd:1.95)
##DET_HASH   : 12273538-fd48-a23f-0a19-f1e6fa85caef
##CALIB_HASH : 6abaa72c-aa41-8738-0be9-f592914732f3
##WORKING    : 15.0 mm
##DET_NAME   : EDAX All
##DET_MODE   : MediumLE
#SPECTRUM    :
20,
266,
6756,
6355,
46155,
3419,
4954,
5026,
7791,
17899,
11842,
35883,
70068,
72338,
6095,
3515,
4185,
3676,
3558,
3706,
3529,
3676,
3455,
4743,
9865,
3925,
23239,
9109,
3706,
5760,
3514,
4397,
5092,
6260,
2990,
3134,
3585,
2580,
2484,
2245,
2061,
2371,
3542,
3524,
2164,
1791,
2668,
1932,
2368,
1925,
1540,
1665,
1386,
1441,
1336,
1281,
1284,
1206,
1134,
1078,
1005,
1056,
966,
956,
939,
911,
860,
844,
772,
765,
701,
724,
708,
636,
709,
648,
591,
565,
633,
545,
515,
523,
475,
494,
459,
459,
418,
368,
355,
379,
329,
328,
365,
322,
297,
388,
360,
268,
241,
227,
384,
669,
314,
206,
192,
157,
154,
160,
150,
149,
116,
137,
147,
178,
126,
108,
91,
71,
77,
72,
63,
68,
56,
64,
52,
54,
35,
46,
30,
33,
27,
19,
25,
22,
23,
15,
17,
8,
8,
5,
1,
6,
1,
4,
0,
0,
0,
0,
2,
0,
0,
0,
0,
0,
2,
0,
1,
0,
0,
0,
0,
1,
1,
0,
1,
0,
0,
0,
0,
0,
0,
0,
0,
1,
0,
0,
0,
0,
0,
0,
0,
0,
0,
0,
0,
0,
0,
0,
0,
0,
0,
0,
0,
0,
0,
0,
0,
0,
0,
0,
0,
0,
0,
0,
0,
0,
0,
1,
0,
0,
0,
0,
0,
0,
0,
0,
0,
0,
0,
0,
0,
0,
0,
0,
0,
0,
0,
0,
0,
0,
0,
0,
0,
0,
0,
0,
0,
0,
0,
0,
0,
0,
0,
0,
0,
0,
0,
0,
0,
0,
0,
0,
0,
0,
0,
0,
0,
0,
0,
0,
0,
0,
0,
0,
0,
0,
0,
0,
0,
0,
0,
0,
0,
0,
0,
0,
0,
0,
0,
0,
0,
0,
0,
0,
0,
0,
0,
0,
0,
0,
0,
0,
0,
0,
#ENDOFDATA   :