File: N132962/Quantification/20 keV/Glass Mount IIIB/GM IIIB K251[3][4].msa
#FORMAT      : EMSA/MAS Spectral Data File
#VERSION     : 1.0
#TITLE       : GM IIIB K251[3][all]
#DATE        : 10-SEP-2025
#TIME        : 18:56
#OWNER       : Unknown
#NPOINTS     : 4096
#NCOLUMNS    : 1
#XUNITS      : eV
#YUNITS      : counts
#DATATYPE    : Y
#XPERCHAN    : 9.99778
#OFFSET      : 1.69135
#BEAMKV      : 20
#SIGNALTYPE  : EDS
#ELEVANGLE   : 35
#AZIMANGLE   : 0
#LIVETIME    : 240.257
#REALTIME    : 265.451
#PROBECUR    : 1.2221
#TAUWIND     : 0
#TDEADLYR    : 0
#TACTLYR     : 0.045
#TALWIND     : 0.025
#CHOFFSET    : 0.0
#XLABEL      : Energy (eV)
#YLABEL      : Counts
#XPOSITION   : 7.42593
#YPOSITION   : 0.83233
#ZPOSITION   : 34.00159
#EDSDET      : SD
##SPECIMEN   : GM IIIB K251[3][all]
##D2STDCMP   : K251,(O:23.02),(Al:1.32),(Si:14.02),(Ba:8.96),(Ta:4.09),(Pb:44.1),(Bi:4.48)
##DET_HASH   : 12273538-fd48-a23f-0a19-f1e6fa85caef
##CALIB_HASH : 6abaa72c-aa41-8738-0be9-f592914732f3
##WORKING    : 15.0 mm
##DET_NAME   : EDAX All
##DET_MODE   : MediumLE
#SPECTRUM    :
17,
505,
11117,
7951,
33166,
7575,
6778,
7361,
7667,
8607,
10043,
14209,
60305,
35538,
8195,
8046,
15046,
105177,
24432,
10777,
5582,
5945,
7082,
5821,
5286,
5449,
5172,
5249,
5461,
5245,
5141,
5708,
18125,
5113,
7199,
8353,
4928,
6506,
4336,
4563,
4590,
4188,
4081,
3835,
3708,
3726,
3838,
3491,
3430,
3347,
3249,
3266,
3120,
3202,
3042,
2872,
2770,
2801,
4807,
3104,
2559,
2463,
2380,
2408,
2309,
2490,
2834,
2676,
2253,
2380,
2009,
1894,
1835,
1796,
2501,
8444,
4619,
2220,
1936,
1500,
1471,
1396,
1378,
1235,
1306,
1234,
1251,
1213,
1281,
1588,
3834,
1756,
1155,
1301,
855,
805,
729,
710,
726,
685,
661,
604,
580,
564,
575,
677,
624,
494,
519,
493,
435,
423,
347,
332,
367,
311,
283,
238,
256,
258,
260,
247,
202,
195,
170,
162,
141,
146,
112,
124,
102,
109,
93,
68,
68,
58,
59,
47,
33,
26,
29,
15,
9,
4,
4,
1,
4,
3,
4,
2,
4,
1,
5,
2,
1,
3,
1,
2,
1,
2,
2,
2,
1,
1,
2,
1,
3,
0,
2,
1,
0,
1,
0,
1,
2,
0,
1,
1,
0,
2,
0,
0,
3,
2,
0,
2,
1,
0,
1,
0,
0,
1,
0,
0,
0,
0,
3,
1,
0,
0,
0,
1,
0,
0,
0,
0,
0,
0,
0,
0,
0,
0,
1,
1,
0,
0,
0,
0,
0,
0,
0,
0,
0,
0,
0,
0,
0,
0,
0,
0,
0,
0,
0,
0,
0,
0,
0,
1,
0,
0,
0,
0,
0,
0,
0,
1,
0,
0,
0,
0,
0,
0,
0,
0,
0,
0,
0,
0,
0,
0,
0,
0,
0,
0,
0,
0,
0,
0,
0,
0,
0,
0,
0,
0,
0,
0,
0,
0,
0,
0,
0,
0,
0,
0,
0,
0,
0,
0,
0,
0,
0,
0,
0,
0,
#ENDOFDATA   :