File: N132962/Quantification/20 keV/Glass Mount IIIB/GM IIIB K411[1][4].msa
#FORMAT      : EMSA/MAS Spectral Data File
#VERSION     : 1.0
#TITLE       : GM IIIB K411[1][all]
#DATE        : 10-SEP-2025
#TIME        : 14:23
#OWNER       : Unknown
#NPOINTS     : 4096
#NCOLUMNS    : 1
#XUNITS      : eV
#YUNITS      : counts
#DATATYPE    : Y
#XPERCHAN    : 9.99778
#OFFSET      : 1.69135
#BEAMKV      : 20
#SIGNALTYPE  : EDS
#ELEVANGLE   : 35
#AZIMANGLE   : 0
#LIVETIME    : 240.206
#REALTIME    : 258.8606
#PROBECUR    : 1.22574
#TAUWIND     : 0
#TDEADLYR    : 0
#TACTLYR     : 0.045
#TALWIND     : 0.025
#CHOFFSET    : 0.0
#XLABEL      : Energy (eV)
#YLABEL      : Counts
#XPOSITION   : 5.07343
#YPOSITION   : 5.09731
#ZPOSITION   : 34.06144
#EDSDET      : SD
##SPECIMEN   : GM IIIB K411[1][all]
##D2STDCMP   : K411,(O:42.3664),(Mg:8.8466),(Si:25.3818),(Ca:11.0563),(Fe:11.2088),5.0
##DET_HASH   : 12273538-fd48-a23f-0a19-f1e6fa85caef
##CALIB_HASH : 6abaa72c-aa41-8738-0be9-f592914732f3
##WORKING    : 15.0 mm
##DET_NAME   : EDAX All
##DET_MODE   : MediumLE
#SPECTRUM    :
34,
225,
7216,
6762,
56416,
12005,
3004,
3532,
4715,
74868,
4718,
5733,
73037,
34602,
3749,
3212,
3839,
3248,
3268,
3174,
3111,
3166,
3063,
2882,
2870,
3418,
34473,
12424,
3882,
7055,
2195,
2090,
2166,
2078,
1914,
1941,
1843,
1725,
1697,
1711,
1531,
1464,
1642,
1442,
1435,
7147,
19578,
1471,
1208,
1369,
3336,
2109,
1059,
1020,
1002,
899,
888,
911,
912,
823,
784,
784,
756,
706,
694,
657,
651,
638,
593,
590,
574,
596,
545,
533,
537,
467,
448,
411,
436,
446,
411,
393,
341,
324,
369,
339,
302,
298,
296,
292,
260,
219,
219,
242,
237,
189,
220,
188,
172,
164,
159,
149,
128,
128,
124,
105,
120,
109,
109,
96,
92,
80,
91,
82,
73,
57,
71,
62,
45,
58,
53,
29,
45,
45,
28,
23,
23,
16,
22,
24,
14,
14,
17,
28,
10,
10,
20,
5,
4,
3,
2,
2,
2,
1,
1,
1,
1,
0,
0,
1,
0,
0,
0,
0,
0,
0,
0,
0,
1,
0,
0,
0,
0,
0,
0,
0,
0,
0,
0,
1,
0,
0,
0,
0,
0,
0,
0,
1,
0,
0,
0,
0,
0,
0,
0,
0,
0,
0,
0,
0,
0,
0,
0,
0,
0,
0,
0,
0,
0,
0,
0,
0,
0,
0,
0,
0,
0,
0,
0,
0,
0,
0,
0,
0,
0,
0,
0,
0,
0,
0,
0,
0,
0,
0,
0,
0,
0,
0,
0,
0,
0,
0,
0,
0,
0,
0,
0,
0,
0,
0,
0,
0,
0,
0,
0,
0,
0,
0,
0,
0,
0,
0,
0,
0,
0,
0,
0,
0,
0,
0,
0,
0,
0,
0,
0,
0,
0,
0,
0,
0,
0,
0,
0,
0,
0,
0,
0,
0,
0,
0,
0,
0,
0,
0,
0,
0,
0,
0,
0,
0,
0,
0,
0,
0,
#ENDOFDATA   :