File: N132962/Quantification/20 keV/Glass Mount IIIB/GM IIIB K411[2][4].msa
#FORMAT      : EMSA/MAS Spectral Data File
#VERSION     : 1.0
#TITLE       : GM IIIB K411[2][all]
#DATE        : 10-SEP-2025
#TIME        : 14:25
#OWNER       : Unknown
#NPOINTS     : 4096
#NCOLUMNS    : 1
#XUNITS      : eV
#YUNITS      : counts
#DATATYPE    : Y
#XPERCHAN    : 9.99778
#OFFSET      : 1.69135
#BEAMKV      : 20
#SIGNALTYPE  : EDS
#ELEVANGLE   : 35
#AZIMANGLE   : 0
#LIVETIME    : 240.202
#REALTIME    : 258.856
#PROBECUR    : 1.22574
#TAUWIND     : 0
#TDEADLYR    : 0
#TACTLYR     : 0.045
#TALWIND     : 0.025
#CHOFFSET    : 0.0
#XLABEL      : Energy (eV)
#YLABEL      : Counts
#XPOSITION   : 5.19283
#YPOSITION   : 5.07868
#ZPOSITION   : 34.06144
#EDSDET      : SD
##SPECIMEN   : GM IIIB K411[2][all]
##D2STDCMP   : K411,(O:42.3664),(Mg:8.8466),(Si:25.3818),(Ca:11.0563),(Fe:11.2088),5.0
##DET_HASH   : 12273538-fd48-a23f-0a19-f1e6fa85caef
##CALIB_HASH : 6abaa72c-aa41-8738-0be9-f592914732f3
##WORKING    : 15.0 mm
##DET_NAME   : EDAX All
##DET_MODE   : MediumLE
#SPECTRUM    :
25,
217,
7065,
6952,
56819,
12098,
3062,
3621,
4704,
74809,
4675,
5601,
73873,
34596,
3833,
3149,
3875,
3246,
3187,
3236,
3092,
3202,
2987,
2937,
2917,
3495,
34246,
12568,
3924,
6949,
2270,
2006,
2184,
2011,
1880,
1929,
1834,
1721,
1738,
1752,
1522,
1463,
1708,
1451,
1438,
6972,
19358,
1421,
1144,
1257,
3310,
2151,
973,
1056,
1008,
922,
930,
905,
881,
814,
823,
751,
701,
704,
692,
702,
642,
625,
674,
613,
552,
556,
522,
529,
532,
489,
494,
460,
449,
376,
384,
360,
387,
350,
289,
339,
320,
309,
270,
310,
254,
226,
224,
214,
212,
223,
199,
187,
175,
171,
160,
160,
118,
150,
119,
103,
107,
116,
92,
101,
86,
72,
79,
69,
63,
68,
60,
56,
49,
64,
42,
36,
41,
39,
25,
36,
38,
30,
21,
18,
10,
14,
20,
11,
15,
12,
8,
9,
5,
5,
1,
3,
1,
2,
0,
1,
0,
0,
0,
0,
0,
1,
0,
1,
0,
0,
0,
0,
0,
0,
0,
0,
0,
0,
1,
0,
1,
0,
0,
0,
0,
0,
0,
0,
0,
0,
0,
0,
0,
0,
0,
0,
0,
0,
0,
0,
0,
0,
0,
0,
0,
0,
0,
0,
0,
0,
0,
0,
0,
0,
0,
0,
0,
0,
0,
0,
0,
0,
0,
0,
0,
0,
0,
0,
0,
0,
0,
0,
0,
0,
0,
0,
0,
0,
0,
0,
0,
0,
0,
0,
0,
0,
0,
0,
0,
0,
0,
0,
0,
0,
0,
0,
0,
0,
0,
0,
0,
0,
0,
0,
0,
0,
0,
0,
0,
0,
0,
0,
0,
0,
0,
0,
0,
0,
0,
0,
0,
0,
0,
0,
0,
0,
0,
0,
0,
0,
0,
0,
0,
0,
0,
0,
0,
0,
0,
0,
0,
0,
0,
0,
0,
0,
0,
0,
#ENDOFDATA   :