File: N132962/Quantification/20 keV/Glass Mount IIIB/GM IIIB K963[4][4].msa
#FORMAT      : EMSA/MAS Spectral Data File
#VERSION     : 1.0
#TITLE       : GM IIIB K963[4][all]
#DATE        : 10-SEP-2025
#TIME        : 16:19
#OWNER       : Unknown
#NPOINTS     : 4096
#NCOLUMNS    : 1
#XUNITS      : eV
#YUNITS      : counts
#DATATYPE    : Y
#XPERCHAN    : 9.99778
#OFFSET      : 1.69135
#BEAMKV      : 20
#SIGNALTYPE  : EDS
#ELEVANGLE   : 35
#AZIMANGLE   : 0
#LIVETIME    : 240.2049
#REALTIME    : 261.666
#PROBECUR    : 1.22413
#TAUWIND     : 0
#TDEADLYR    : 0
#TACTLYR     : 0.045
#TALWIND     : 0.025
#CHOFFSET    : 0.0
#XLABEL      : Energy (eV)
#YLABEL      : Counts
#XPOSITION   : 9.27903
#YPOSITION   : 12.37729
#ZPOSITION   : 34.06144
#EDSDET      : SD
##SPECIMEN   : GM IIIB K963[4][all]
##D2STDCMP   : K963,(O:31.92),(Mg:0.14),(Si:21.99),(P:0.36),(Ti:0.28),(Cr:0.3),(Ni:0.34),(Zn:3.0),(Ge:0.42),(Zr:0.53),(Ba:39.52),(Eu:0.88),(Th:0.13),(U:0.17)
##DET_HASH   : 12273538-fd48-a23f-0a19-f1e6fa85caef
##CALIB_HASH : 6abaa72c-aa41-8738-0be9-f592914732f3
##WORKING    : 15.0 mm
##DET_NAME   : EDAX All
##DET_MODE   : MediumLE
#SPECTRUM    :
25,
369,
8121,
10956,
71100,
5769,
6508,
11867,
5844,
7251,
5482,
6742,
56137,
28432,
5771,
5921,
5518,
5037,
5070,
5099,
5155,
4964,
5001,
4935,
4717,
4622,
4454,
4390,
5919,
4391,
4156,
7968,
66029,
4785,
15149,
21023,
5408,
12866,
3439,
5248,
4661,
3704,
4050,
2647,
2413,
2370,
2802,
2335,
2224,
2215,
2001,
1981,
1981,
2494,
2121,
1865,
1811,
1742,
1698,
1770,
1611,
2908,
3644,
1522,
1391,
1393,
1397,
1316,
1544,
1434,
1394,
1312,
1151,
1067,
1075,
1028,
981,
919,
1001,
886,
914,
796,
809,
749,
744,
696,
663,
657,
630,
647,
628,
589,
515,
489,
514,
429,
441,
423,
403,
384,
427,
385,
339,
324,
299,
270,
328,
244,
264,
211,
233,
215,
228,
163,
170,
154,
173,
151,
152,
120,
110,
120,
101,
104,
78,
86,
88,
83,
77,
57,
55,
46,
40,
36,
43,
36,
33,
23,
23,
23,
8,
6,
4,
4,
0,
2,
2,
1,
0,
0,
1,
0,
3,
0,
0,
0,
1,
1,
2,
1,
1,
2,
2,
0,
0,
0,
0,
0,
0,
0,
1,
0,
0,
0,
0,
0,
0,
1,
1,
1,
0,
0,
0,
0,
0,
0,
0,
0,
0,
0,
0,
0,
0,
0,
0,
0,
0,
0,
1,
1,
0,
0,
0,
0,
0,
0,
0,
1,
0,
0,
0,
0,
0,
0,
0,
0,
0,
0,
0,
0,
0,
0,
0,
0,
0,
0,
0,
0,
0,
0,
0,
0,
0,
0,
0,
0,
0,
0,
0,
0,
0,
0,
0,
0,
0,
0,
0,
0,
0,
0,
0,
0,
0,
0,
0,
0,
0,
0,
0,
0,
0,
0,
0,
0,
0,
0,
0,
0,
0,
0,
0,
0,
0,
0,
0,
0,
0,
0,
0,
0,
0,
0,
0,
0,
0,
0,
0,
0,
0,
0,
0,
0,
0,
0,
#ENDOFDATA   :