File: N132962/Quantification/20 keV/Glass Mount IIIB/GM IIIA K1010[3][4].msa
#FORMAT      : EMSA/MAS Spectral Data File
#VERSION     : 1.0
#TITLE       : K1010 IIIA K1010[3][all]
#DATE        : 18-SEP-2025
#TIME        : 10:10
#OWNER       : Unknown
#NPOINTS     : 4096
#NCOLUMNS    : 1
#XUNITS      : eV
#YUNITS      : counts
#DATATYPE    : Y
#XPERCHAN    : 9.99778
#OFFSET      : 1.69135
#BEAMKV      : 20
#SIGNALTYPE  : EDS
#ELEVANGLE   : 35
#AZIMANGLE   : 0
#LIVETIME    : 240.161
#REALTIME    : 259.941
#PROBECUR    : 1.21237
#TAUWIND     : 0
#TDEADLYR    : 0
#TACTLYR     : 0.045
#TALWIND     : 0.025
#CHOFFSET    : 0.0
#XLABEL      : Energy (eV)
#YLABEL      : Counts
#XPOSITION   : 10.49795
#YPOSITION   : 15.5554
#ZPOSITION   : 37.3512
#EDSDET      : SD
##SPECIMEN   : K1010 IIIA K1010[3][all]
##DET_HASH   : 12273538-fd48-a23f-0a19-f1e6fa85caef
##CALIB_HASH : 6abaa72c-aa41-8738-0be9-f592914732f3
##WORKING    : 15.0 mm
##DET_NAME   : EDAX All
##DET_MODE   : MediumLE
#SPECTRUM    :
24,
280,
7108,
6613,
46755,
3604,
4905,
5275,
8810,
8344,
11896,
36024,
69709,
71752,
6253,
3583,
4179,
3723,
3654,
3731,
3691,
3706,
3555,
4879,
9955,
4069,
23490,
10090,
3714,
6225,
3646,
4553,
2855,
6140,
3004,
2793,
3551,
2546,
2596,
2453,
2116,
2519,
3604,
3465,
2188,
1814,
2690,
1890,
2510,
2059,
1651,
1688,
1381,
1518,
1339,
1335,
1349,
1207,
1179,
1090,
1108,
1010,
978,
1006,
965,
947,
912,
918,
839,
828,
1385,
1249,
733,
715,
684,
690,
670,
548,
712,
639,
517,
495,
486,
504,
517,
469,
473,
403,
378,
398,
372,
350,
336,
303,
284,
434,
366,
257,
269,
256,
405,
694,
327,
185,
182,
197,
183,
204,
168,
125,
146,
124,
153,
170,
115,
105,
102,
83,
72,
73,
74,
57,
62,
54,
51,
39,
39,
42,
39,
25,
39,
30,
22,
19,
17,
15,
11,
9,
15,
8,
7,
4,
3,
0,
1,
0,
0,
3,
0,
1,
0,
0,
1,
0,
0,
0,
0,
1,
0,
1,
0,
1,
0,
0,
0,
0,
0,
0,
0,
0,
0,
0,
1,
0,
0,
0,
0,
0,
0,
0,
0,
0,
0,
0,
0,
0,
0,
0,
0,
0,
1,
0,
0,
1,
0,
0,
0,
0,
0,
0,
0,
1,
0,
0,
0,
0,
0,
0,
0,
0,
0,
0,
0,
0,
0,
0,
0,
0,
0,
0,
0,
0,
0,
0,
0,
0,
0,
0,
0,
0,
0,
0,
0,
0,
0,
0,
0,
0,
0,
0,
0,
0,
0,
0,
0,
0,
0,
0,
0,
0,
0,
0,
0,
0,
0,
0,
0,
0,
0,
0,
0,
0,
0,
0,
0,
0,
0,
0,
0,
0,
0,
0,
0,
0,
0,
0,
0,
0,
0,
0,
0,
0,
0,
0,
0,
0,
0,
0,
0,
0,
0,
0,
0,
0,
#ENDOFDATA   :