File: N132962/Quantification/20 keV/Glass Mount IIIB/GM IIIB K252[3][4].msa
#FORMAT      : EMSA/MAS Spectral Data File
#VERSION     : 1.0
#TITLE       : GM IIIB K252[3][all]
#DATE        : 10-SEP-2025
#TIME        : 19:02
#OWNER       : Unknown
#NPOINTS     : 4096
#NCOLUMNS    : 1
#XUNITS      : eV
#YUNITS      : counts
#DATATYPE    : Y
#XPERCHAN    : 9.99778
#OFFSET      : 1.69135
#BEAMKV      : 20
#SIGNALTYPE  : EDS
#ELEVANGLE   : 35
#AZIMANGLE   : 0
#LIVETIME    : 240.233
#REALTIME    : 261.4801
#PROBECUR    : 1.2221
#TAUWIND     : 0
#TDEADLYR    : 0
#TACTLYR     : 0.045
#TALWIND     : 0.025
#CHOFFSET    : 0.0
#XLABEL      : Energy (eV)
#YLABEL      : Counts
#XPOSITION   : 5.52354
#YPOSITION   : 0.65872
#ZPOSITION   : 34.00159
#EDSDET      : SD
##SPECIMEN   : GM IIIB K252[3][all]
##D2STDCMP   : K252,(O:30.83),(Si:18.7),(Mn:3.16),(Co:3.93),(Cu:3.99),(Zn:8.03),(Ba:31.35)
##DET_HASH   : 12273538-fd48-a23f-0a19-f1e6fa85caef
##CALIB_HASH : 6abaa72c-aa41-8738-0be9-f592914732f3
##WORKING    : 15.0 mm
##DET_NAME   : EDAX All
##DET_MODE   : MediumLE
#SPECTRUM    :
31,
339,
8332,
10605,
69292,
7188,
7763,
23277,
4990,
4744,
5276,
6527,
48408,
24586,
4598,
4857,
5379,
5060,
5080,
5244,
5151,
4794,
4967,
4750,
4642,
4635,
4501,
4256,
5655,
4414,
3971,
7310,
54859,
4414,
13298,
17862,
5152,
11117,
3166,
4353,
4407,
3584,
11263,
3319,
2434,
2420,
3341,
2566,
2207,
5728,
4799,
2053,
1956,
1996,
2209,
2385,
1717,
4855,
3775,
1634,
1650,
5124,
7429,
1876,
1831,
1358,
1296,
1322,
2078,
1657,
1148,
1094,
1077,
1045,
969,
968,
994,
942,
922,
909,
811,
769,
767,
733,
764,
731,
714,
672,
618,
615,
522,
547,
518,
570,
483,
474,
435,
452,
417,
363,
387,
351,
298,
307,
298,
259,
244,
265,
227,
223,
224,
221,
199,
188,
176,
169,
156,
157,
126,
115,
119,
99,
115,
96,
101,
89,
77,
85,
60,
55,
44,
52,
54,
38,
32,
32,
25,
21,
16,
14,
14,
5,
2,
0,
4,
2,
4,
3,
0,
0,
1,
2,
3,
0,
1,
0,
0,
0,
2,
0,
1,
0,
0,
1,
1,
1,
0,
0,
1,
0,
0,
0,
0,
0,
0,
0,
0,
0,
0,
0,
1,
0,
1,
0,
0,
0,
0,
0,
0,
0,
0,
0,
0,
0,
0,
0,
0,
0,
1,
0,
0,
0,
0,
0,
0,
0,
0,
1,
0,
0,
0,
0,
0,
0,
0,
0,
0,
0,
0,
0,
0,
0,
0,
0,
0,
0,
0,
0,
0,
0,
0,
0,
0,
0,
0,
0,
0,
0,
0,
0,
0,
0,
0,
0,
0,
0,
0,
0,
0,
0,
0,
0,
0,
0,
0,
0,
0,
0,
0,
0,
0,
0,
0,
0,
0,
0,
0,
0,
0,
0,
0,
0,
0,
0,
0,
0,
0,
0,
0,
0,
0,
0,
0,
0,
0,
0,
0,
0,
0,
0,
0,
0,
0,
0,
#ENDOFDATA   :