File: N132962/Quantification/20 keV/Glass Mount IIIB/GM IIIB K961[3][4].msa
#FORMAT      : EMSA/MAS Spectral Data File
#VERSION     : 1.0
#TITLE       : GM IIIB K961[3][all]
#DATE        : 11-SEP-2025
#TIME        : 09:57
#OWNER       : Unknown
#NPOINTS     : 4096
#NCOLUMNS    : 1
#XUNITS      : eV
#YUNITS      : counts
#DATATYPE    : Y
#XPERCHAN    : 9.99778
#OFFSET      : 1.69135
#BEAMKV      : 20
#SIGNALTYPE  : EDS
#ELEVANGLE   : 35
#AZIMANGLE   : 0
#LIVETIME    : 240.144
#REALTIME    : 259.1838
#PROBECUR    : 1.22337
#TAUWIND     : 0
#TDEADLYR    : 0
#TACTLYR     : 0.045
#TALWIND     : 0.025
#CHOFFSET    : 0.0
#XLABEL      : Energy (eV)
#YLABEL      : Counts
#XPOSITION   : 11.34626
#YPOSITION   : 11.98167
#ZPOSITION   : 34.00161
#EDSDET      : SD
##SPECIMEN   : GM IIIB K961[3][all]
##D2STDCMP   : K961,(O:46.98),(Na:2.97),(Mg:3.02),(Al:5.82),(Si:29.92),(P:0.22),(K:2.49),(Ca:3.57),(Ti:1.2),(Mn:0.32),(Fe:3.5)
##DET_HASH   : 12273538-fd48-a23f-0a19-f1e6fa85caef
##CALIB_HASH : 6abaa72c-aa41-8738-0be9-f592914732f3
##WORKING    : 15.0 mm
##DET_NAME   : EDAX All
##DET_MODE   : MediumLE
#SPECTRUM    :
29,
222,
5273,
8022,
65085,
5872,
3100,
7387,
5059,
29476,
8401,
24836,
86576,
40364,
3629,
2980,
3695,
2831,
2857,
2872,
2759,
2730,
2649,
4516,
11087,
3338,
13183,
5412,
2594,
3541,
2013,
1923,
5886,
2199,
1697,
2230,
1668,
1628,
1473,
1490,
1469,
1406,
2084,
1327,
1334,
3024,
7012,
1230,
1062,
1090,
1695,
1345,
916,
975,
871,
837,
765,
744,
736,
717,
769,
718,
666,
614,
611,
618,
560,
531,
518,
499,
464,
495,
475,
445,
435,
403,
393,
391,
399,
330,
323,
355,
319,
339,
277,
273,
263,
250,
263,
252,
225,
201,
212,
174,
169,
191,
183,
178,
132,
144,
139,
144,
137,
124,
102,
88,
89,
97,
87,
82,
77,
83,
59,
64,
62,
59,
50,
58,
50,
36,
38,
39,
27,
33,
22,
23,
29,
23,
28,
17,
19,
16,
13,
12,
5,
6,
4,
8,
5,
3,
4,
0,
1,
1,
0,
0,
0,
0,
0,
1,
0,
0,
0,
0,
0,
0,
0,
0,
0,
0,
0,
0,
0,
0,
0,
0,
0,
0,
0,
0,
0,
0,
0,
0,
0,
0,
0,
0,
0,
0,
0,
0,
0,
0,
0,
0,
0,
0,
0,
0,
0,
0,
0,
0,
0,
0,
0,
0,
0,
0,
0,
0,
0,
0,
0,
0,
0,
0,
0,
0,
0,
0,
0,
0,
0,
0,
0,
0,
0,
0,
0,
0,
0,
0,
0,
0,
0,
0,
0,
0,
0,
0,
0,
0,
0,
0,
0,
0,
0,
0,
0,
0,
0,
0,
0,
0,
0,
0,
0,
0,
0,
0,
0,
0,
0,
0,
0,
0,
0,
0,
0,
0,
0,
0,
0,
0,
0,
0,
0,
0,
0,
0,
0,
0,
0,
0,
0,
0,
0,
0,
0,
0,
0,
0,
0,
0,
0,
0,
0,
0,
0,
0,
0,
0,
#ENDOFDATA   :