File: N132962/Quantification/20 keV/Glass Mount IIIB/GM IIIB K1234[3][4].msa
#FORMAT      : EMSA/MAS Spectral Data File
#VERSION     : 1.0
#TITLE       : GM IIIB K1234[3][all]
#DATE        : 10-SEP-2025
#TIME        : 17:57
#OWNER       : Unknown
#NPOINTS     : 4096
#NCOLUMNS    : 1
#XUNITS      : eV
#YUNITS      : counts
#DATATYPE    : Y
#XPERCHAN    : 9.99778
#OFFSET      : 1.69135
#BEAMKV      : 20
#SIGNALTYPE  : EDS
#ELEVANGLE   : 35
#AZIMANGLE   : 0
#LIVETIME    : 240.152
#REALTIME    : 259.695
#PROBECUR    : 1.22375
#TAUWIND     : 0
#TDEADLYR    : 0
#TACTLYR     : 0.045
#TALWIND     : 0.025
#CHOFFSET    : 0.0
#XLABEL      : Energy (eV)
#YLABEL      : Counts
#XPOSITION   : 0.57586
#YPOSITION   : 15.81392
#ZPOSITION   : 34.06144
#EDSDET      : SD
##SPECIMEN   : GM IIIB K1234[3][all]
##D2STDCMP   : K1234,(O:39.85),(Al:9.15),(Si:21.56),(Ca:12.36),(Ba:15.49),(W:1.59)
##DET_HASH   : 12273538-fd48-a23f-0a19-f1e6fa85caef
##CALIB_HASH : 6abaa72c-aa41-8738-0be9-f592914732f3
##WORKING    : 15.0 mm
##DET_NAME   : EDAX All
##DET_MODE   : MediumLE
#SPECTRUM    :
14,
231,
8765,
6948,
52184,
3559,
4220,
5083,
4687,
5411,
10951,
32395,
59384,
32991,
4614,
3884,
4462,
3875,
3898,
3945,
3810,
3691,
3554,
3736,
3404,
3995,
39661,
14801,
5284,
8641,
2753,
4103,
24698,
2802,
6796,
8800,
2986,
5773,
2209,
2817,
2695,
2155,
2096,
1858,
1730,
1655,
1743,
1610,
1553,
1466,
1426,
1416,
1401,
1444,
1379,
1273,
1235,
1155,
1109,
1266,
1727,
1148,
1017,
1023,
975,
998,
879,
822,
895,
1073,
909,
904,
780,
762,
693,
670,
660,
653,
623,
612,
568,
523,
513,
538,
496,
499,
457,
423,
415,
455,
392,
371,
332,
339,
285,
281,
316,
261,
261,
253,
237,
192,
227,
197,
176,
167,
198,
177,
148,
139,
135,
134,
124,
111,
83,
96,
90,
83,
87,
83,
70,
70,
47,
53,
49,
47,
51,
42,
34,
32,
31,
26,
26,
21,
15,
21,
9,
9,
8,
7,
7,
6,
0,
0,
2,
0,
0,
0,
0,
1,
1,
1,
0,
0,
0,
0,
0,
0,
0,
0,
0,
1,
1,
0,
0,
0,
0,
0,
0,
0,
0,
0,
0,
0,
0,
0,
0,
1,
0,
0,
0,
0,
0,
0,
0,
0,
1,
0,
1,
0,
0,
0,
0,
0,
0,
0,
0,
0,
0,
0,
0,
0,
0,
0,
0,
0,
0,
0,
0,
0,
0,
0,
0,
0,
0,
0,
0,
0,
0,
0,
0,
0,
0,
0,
0,
0,
0,
0,
0,
0,
0,
0,
0,
0,
0,
0,
0,
0,
0,
0,
0,
0,
0,
0,
0,
0,
0,
0,
0,
0,
0,
0,
0,
0,
0,
0,
0,
0,
0,
0,
0,
0,
0,
0,
0,
0,
0,
0,
0,
0,
0,
0,
0,
0,
0,
0,
0,
0,
0,
0,
0,
0,
0,
0,
0,
0,
0,
0,
0,
0,
0,
0,
0,
0,
#ENDOFDATA   :