File: N132962/Quantification/20 keV/Glass Mount IIIB/GM IIIB K523[1][4].msa
#FORMAT      : EMSA/MAS Spectral Data File
#VERSION     : 1.0
#TITLE       : GM IIIB K523[1][all]
#DATE        : 11-SEP-2025
#TIME        : 09:14
#OWNER       : Unknown
#NPOINTS     : 4096
#NCOLUMNS    : 1
#XUNITS      : eV
#YUNITS      : counts
#DATATYPE    : Y
#XPERCHAN    : 9.99778
#OFFSET      : 1.69135
#BEAMKV      : 20
#SIGNALTYPE  : EDS
#ELEVANGLE   : 35
#AZIMANGLE   : 0
#LIVETIME    : 240.244
#REALTIME    : 267.303
#PROBECUR    : 1.22303
#TAUWIND     : 0
#TDEADLYR    : 0
#TACTLYR     : 0.045
#TALWIND     : 0.025
#CHOFFSET    : 0.0
#XLABEL      : Energy (eV)
#YLABEL      : Counts
#XPOSITION   : 1.58051
#YPOSITION   : 9.70845
#ZPOSITION   : 34.00161
#EDSDET      : SD
##SPECIMEN   : GM IIIB K523[1][all]
##D2STDCMP   : K523,(O:20.71),(Mg:0.1),(Si:12.9),(P:0.25),(Ti:0.19),(Cr:0.21),(Ni:0.24),(Ge:0.29),(Zr:0.36),(Ba:0.55),(Eu:0.6),(Pb:63.41),(Th:0.1),(U:0.11)
##DET_HASH   : 12273538-fd48-a23f-0a19-f1e6fa85caef
##CALIB_HASH : 6abaa72c-aa41-8738-0be9-f592914732f3
##WORKING    : 15.0 mm
##DET_NAME   : EDAX All
##DET_MODE   : MediumLE
#SPECTRUM    :
10,
572,
12005,
7491,
28642,
8237,
7697,
7685,
9361,
10582,
10333,
11236,
50798,
38668,
10095,
10633,
19838,
151547,
25403,
12620,
5604,
6176,
7523,
5959,
5416,
5661,
5520,
5386,
5150,
5255,
5460,
5171,
7061,
5291,
5167,
5333,
4836,
4873,
4800,
4895,
4355,
4612,
4923,
4283,
4036,
4051,
4473,
3955,
3837,
3799,
3550,
3551,
3440,
4010,
3495,
3155,
3031,
3015,
2915,
2904,
2830,
2769,
2682,
2673,
2378,
2708,
2778,
2374,
2326,
2277,
2247,
2241,
2084,
2042,
3133,
11530,
6497,
1899,
1759,
1736,
1554,
1518,
1509,
1453,
1405,
1308,
1344,
1499,
1400,
1969,
5323,
2270,
1325,
1274,
948,
849,
838,
848,
813,
730,
733,
645,
691,
604,
611,
928,
787,
611,
567,
573,
497,
441,
417,
397,
373,
378,
318,
315,
285,
295,
270,
243,
261,
221,
212,
199,
169,
204,
147,
135,
135,
105,
112,
84,
75,
79,
69,
43,
37,
48,
35,
16,
9,
6,
5,
2,
4,
2,
4,
2,
1,
7,
5,
1,
4,
2,
0,
3,
1,
4,
3,
1,
0,
0,
2,
3,
1,
2,
0,
2,
1,
0,
2,
1,
3,
1,
2,
0,
3,
0,
2,
0,
1,
0,
0,
1,
1,
1,
0,
0,
2,
1,
0,
0,
1,
0,
0,
0,
1,
1,
0,
0,
0,
0,
0,
0,
0,
0,
1,
0,
0,
0,
0,
0,
0,
0,
0,
0,
0,
0,
0,
0,
0,
0,
0,
0,
0,
0,
0,
1,
0,
0,
0,
0,
0,
0,
0,
0,
0,
0,
0,
0,
0,
0,
0,
0,
0,
0,
0,
0,
0,
0,
0,
0,
0,
0,
0,
0,
0,
0,
0,
0,
0,
0,
0,
0,
0,
0,
0,
0,
0,
0,
0,
0,
0,
0,
0,
0,
0,
0,
0,
0,
0,
0,
0,
0,
0,
0,
0,
0,
0,
0,
0,
0,
#ENDOFDATA   :