File: N132962/Quantification/20 keV/Glass Mount IIIB/GM IIIB K961[6][4].msa
#FORMAT      : EMSA/MAS Spectral Data File
#VERSION     : 1.0
#TITLE       : GM IIIB K961[6][all]
#DATE        : 11-SEP-2025
#TIME        : 10:01
#OWNER       : Unknown
#NPOINTS     : 4096
#NCOLUMNS    : 1
#XUNITS      : eV
#YUNITS      : counts
#DATATYPE    : Y
#XPERCHAN    : 9.99778
#OFFSET      : 1.69135
#BEAMKV      : 20
#SIGNALTYPE  : EDS
#ELEVANGLE   : 35
#AZIMANGLE   : 0
#LIVETIME    : 240.149
#REALTIME    : 259.181
#PROBECUR    : 1.22337
#TAUWIND     : 0
#TDEADLYR    : 0
#TACTLYR     : 0.045
#TALWIND     : 0.025
#CHOFFSET    : 0.0
#XLABEL      : Energy (eV)
#YLABEL      : Counts
#XPOSITION   : 11.33135
#YPOSITION   : 12.04942
#ZPOSITION   : 34.00161
#EDSDET      : SD
##SPECIMEN   : GM IIIB K961[6][all]
##D2STDCMP   : K961,(O:46.98),(Na:2.97),(Mg:3.02),(Al:5.82),(Si:29.92),(P:0.22),(K:2.49),(Ca:3.57),(Ti:1.2),(Mn:0.32),(Fe:3.5)
##DET_HASH   : 12273538-fd48-a23f-0a19-f1e6fa85caef
##CALIB_HASH : 6abaa72c-aa41-8738-0be9-f592914732f3
##WORKING    : 15.0 mm
##DET_NAME   : EDAX All
##DET_MODE   : MediumLE
#SPECTRUM    :
20,
210,
5162,
8117,
65336,
5726,
3107,
7394,
5047,
29686,
8506,
24635,
87207,
40545,
3596,
2921,
3770,
2843,
2864,
2766,
2860,
2897,
2682,
4398,
10982,
3362,
13402,
5470,
2593,
3639,
2132,
1976,
5841,
2183,
1747,
2160,
1715,
1581,
1438,
1538,
1406,
1370,
2003,
1372,
1227,
3005,
7020,
1214,
1092,
1066,
1614,
1293,
906,
963,
874,
865,
822,
783,
757,
766,
708,
668,
645,
674,
574,
566,
574,
549,
505,
560,
526,
481,
457,
463,
437,
427,
379,
374,
393,
333,
346,
349,
336,
313,
260,
290,
296,
277,
237,
229,
233,
232,
208,
175,
200,
171,
166,
171,
146,
155,
136,
118,
152,
109,
112,
97,
93,
92,
99,
78,
72,
77,
66,
74,
47,
62,
61,
56,
51,
47,
39,
35,
31,
38,
27,
26,
17,
34,
22,
26,
22,
19,
10,
11,
10,
8,
8,
6,
6,
1,
3,
0,
0,
0,
0,
0,
0,
0,
0,
0,
0,
1,
0,
0,
0,
0,
0,
0,
0,
0,
0,
0,
0,
0,
0,
0,
0,
0,
1,
0,
0,
0,
0,
0,
0,
0,
0,
0,
0,
0,
0,
0,
0,
0,
0,
0,
0,
0,
0,
0,
0,
0,
0,
0,
0,
0,
0,
0,
0,
0,
0,
0,
0,
0,
0,
0,
0,
0,
0,
0,
0,
0,
0,
0,
0,
0,
0,
0,
0,
0,
0,
0,
0,
0,
0,
0,
0,
0,
0,
0,
0,
0,
0,
0,
0,
0,
0,
0,
0,
0,
0,
0,
0,
0,
0,
0,
0,
0,
0,
0,
0,
0,
0,
0,
0,
0,
0,
0,
0,
0,
0,
0,
0,
0,
0,
0,
0,
0,
0,
0,
0,
0,
0,
0,
0,
0,
0,
0,
0,
0,
0,
0,
0,
0,
0,
0,
0,
0,
0,
0,
0,
0,
0,
0,
#ENDOFDATA   :