File: N132962/Quantification/20 keV/Glass Mount IIIB/GM IIIB K229[2][4].msa
#FORMAT      : EMSA/MAS Spectral Data File
#VERSION     : 1.0
#TITLE       : GM IIIB K229[2][all]
#DATE        : 10-SEP-2025
#TIME        : 19:19
#OWNER       : Unknown
#NPOINTS     : 4096
#NCOLUMNS    : 1
#XUNITS      : eV
#YUNITS      : counts
#DATATYPE    : Y
#XPERCHAN    : 9.99778
#OFFSET      : 1.69135
#BEAMKV      : 20
#SIGNALTYPE  : EDS
#ELEVANGLE   : 35
#AZIMANGLE   : 0
#LIVETIME    : 240.428
#REALTIME    : 267.554
#PROBECUR    : 1.21918
#TAUWIND     : 0
#TDEADLYR    : 0
#TACTLYR     : 0.045
#TALWIND     : 0.025
#CHOFFSET    : 0.0
#XLABEL      : Energy (eV)
#YLABEL      : Counts
#XPOSITION   : 6.56517
#YPOSITION   : -0.93368
#ZPOSITION   : 34.00159
#EDSDET      : SD
##SPECIMEN   : GM IIIB K229[2][all]
##D2STDCMP   : K229,(O:20.99),(Si:14.02),(Pb:64.98)
##DET_HASH   : 12273538-fd48-a23f-0a19-f1e6fa85caef
##CALIB_HASH : 6abaa72c-aa41-8738-0be9-f592914732f3
##WORKING    : 15.0 mm
##DET_NAME   : EDAX All
##DET_MODE   : MediumLE
#SPECTRUM    :
24,
545,
11887,
7475,
28507,
8104,
6964,
7564,
8379,
9536,
10311,
11287,
54297,
40160,
8996,
9301,
20175,
155930,
25999,
12663,
5546,
6053,
7677,
5651,
5225,
5482,
5432,
5243,
5103,
5165,
5255,
4976,
5376,
5069,
5184,
4984,
4701,
4641,
4597,
4496,
4458,
4260,
4232,
4089,
4033,
3978,
4215,
3795,
3711,
3586,
3604,
3548,
3393,
3519,
3282,
3128,
2983,
3034,
3000,
2886,
2776,
2678,
2608,
2492,
2489,
2839,
2849,
2427,
2306,
2175,
2193,
2202,
2095,
2036,
3145,
11960,
6520,
1842,
1706,
1687,
1581,
1615,
1534,
1388,
1416,
1312,
1387,
1462,
1375,
1997,
5290,
2251,
1290,
1277,
1005,
879,
821,
833,
799,
795,
756,
727,
685,
601,
624,
880,
765,
596,
610,
535,
449,
441,
431,
386,
357,
348,
361,
287,
342,
259,
284,
249,
207,
219,
186,
182,
173,
170,
163,
153,
126,
114,
97,
83,
93,
58,
50,
52,
54,
43,
29,
19,
8,
9,
2,
5,
5,
5,
2,
5,
2,
5,
3,
3,
5,
1,
1,
2,
3,
2,
0,
4,
2,
2,
1,
6,
3,
2,
1,
2,
1,
0,
1,
1,
0,
0,
0,
1,
2,
0,
1,
3,
2,
3,
0,
1,
0,
2,
0,
0,
0,
0,
0,
1,
1,
2,
3,
0,
0,
1,
1,
0,
1,
0,
0,
0,
0,
0,
0,
0,
0,
0,
0,
0,
0,
0,
0,
0,
0,
0,
0,
0,
0,
0,
0,
0,
0,
0,
0,
0,
0,
0,
0,
0,
0,
0,
0,
0,
0,
0,
0,
0,
0,
0,
0,
0,
0,
0,
0,
0,
0,
0,
0,
0,
0,
0,
0,
0,
0,
0,
0,
0,
0,
0,
0,
0,
0,
0,
0,
0,
0,
0,
0,
0,
0,
0,
0,
0,
0,
0,
0,
0,
0,
0,
0,
0,
0,
0,
0,
0,
0,
0,
0,
0,
#ENDOFDATA   :