File: N132962/Quantification/20 keV/Glass Mount IIIB/GM IIIB K919[4][4].msa
#FORMAT      : EMSA/MAS Spectral Data File
#VERSION     : 1.0
#TITLE       : GM IIIB K919[4][all]
#DATE        : 10-SEP-2025
#TIME        : 16:07
#OWNER       : Unknown
#NPOINTS     : 4096
#NCOLUMNS    : 1
#XUNITS      : eV
#YUNITS      : counts
#DATATYPE    : Y
#XPERCHAN    : 9.99778
#OFFSET      : 1.69135
#BEAMKV      : 20
#SIGNALTYPE  : EDS
#ELEVANGLE   : 35
#AZIMANGLE   : 0
#LIVETIME    : 239.997
#REALTIME    : 261.42
#PROBECUR    : 1.22413
#TAUWIND     : 0
#TDEADLYR    : 0
#TACTLYR     : 0.045
#TALWIND     : 0.025
#CHOFFSET    : 0.0
#XLABEL      : Energy (eV)
#YLABEL      : Counts
#XPOSITION   : 13.83505
#YPOSITION   : 12.02989
#ZPOSITION   : 34.06144
#EDSDET      : SD
##SPECIMEN   : GM IIIB K919[4][all]
##D2STDCMP   : K919,(O:31.86),(Si:20.1),(Cr:0.68),(Mn:1.9),(Fe:2.1),(Co:2.13),(Ni:2.36),(Cu:2.4),(Ba:34.03),(Ce:2.44)
##DET_HASH   : 12273538-fd48-a23f-0a19-f1e6fa85caef
##CALIB_HASH : 6abaa72c-aa41-8738-0be9-f592914732f3
##WORKING    : 15.0 mm
##DET_NAME   : EDAX All
##DET_MODE   : MediumLE
#SPECTRUM    :
23,
334,
8382,
11149,
73021,
10527,
10509,
7633,
4732,
4748,
5500,
6331,
52365,
26583,
4758,
4823,
5432,
5082,
5162,
5160,
4955,
4919,
5041,
4703,
4603,
4505,
4551,
4236,
5564,
4380,
4056,
7555,
57379,
4406,
14940,
20547,
5075,
12192,
4715,
5882,
4986,
3702,
7848,
3189,
2430,
3533,
6503,
2476,
2143,
4374,
4056,
2185,
2002,
4599,
3381,
2103,
1742,
3582,
3005,
2082,
1595,
1461,
1445,
1554,
1567,
1314,
1331,
1252,
1206,
1201,
1149,
1110,
1093,
1056,
1028,
959,
974,
904,
924,
917,
835,
781,
760,
732,
708,
702,
632,
626,
606,
648,
553,
579,
564,
514,
465,
443,
446,
428,
389,
382,
361,
351,
331,
301,
311,
300,
285,
275,
248,
222,
209,
209,
200,
169,
177,
184,
152,
161,
138,
133,
132,
133,
87,
86,
92,
102,
82,
87,
59,
62,
53,
47,
48,
38,
40,
27,
30,
17,
21,
16,
12,
7,
2,
5,
1,
0,
2,
1,
3,
0,
1,
0,
0,
0,
2,
1,
2,
0,
0,
0,
0,
0,
1,
0,
1,
0,
2,
0,
1,
0,
0,
0,
0,
0,
0,
0,
1,
0,
0,
0,
0,
0,
0,
1,
0,
0,
2,
0,
0,
0,
0,
1,
2,
0,
0,
1,
0,
0,
0,
0,
0,
0,
0,
0,
0,
0,
0,
0,
1,
0,
0,
0,
0,
0,
0,
0,
0,
0,
0,
0,
0,
0,
0,
0,
0,
0,
0,
0,
0,
0,
0,
0,
0,
0,
0,
0,
0,
0,
0,
0,
0,
0,
0,
0,
0,
0,
0,
0,
0,
0,
0,
0,
0,
0,
0,
0,
0,
0,
0,
0,
0,
0,
0,
0,
0,
0,
0,
0,
0,
0,
0,
0,
0,
0,
0,
0,
0,
0,
0,
0,
0,
0,
0,
0,
0,
0,
0,
0,
0,
0,
0,
0,
0,
0,
#ENDOFDATA   :