File: N132962/Quantification/20 keV/Glass Mount IIIB/GM IIIB K523[6][4].msa
#FORMAT      : EMSA/MAS Spectral Data File
#VERSION     : 1.0
#TITLE       : GM IIIB K523[6][all]
#DATE        : 11-SEP-2025
#TIME        : 09:20
#OWNER       : Unknown
#NPOINTS     : 4096
#NCOLUMNS    : 1
#XUNITS      : eV
#YUNITS      : counts
#DATATYPE    : Y
#XPERCHAN    : 9.99778
#OFFSET      : 1.69135
#BEAMKV      : 20
#SIGNALTYPE  : EDS
#ELEVANGLE   : 35
#AZIMANGLE   : 0
#LIVETIME    : 240.233
#REALTIME    : 267.305
#PROBECUR    : 1.22303
#TAUWIND     : 0
#TDEADLYR    : 0
#TACTLYR     : 0.045
#TALWIND     : 0.025
#CHOFFSET    : 0.0
#XLABEL      : Energy (eV)
#YLABEL      : Counts
#XPOSITION   : 1.65562
#YPOSITION   : 9.68048
#ZPOSITION   : 34.00161
#EDSDET      : SD
##SPECIMEN   : GM IIIB K523[6][all]
##D2STDCMP   : K523,(O:20.71),(Mg:0.1),(Si:12.9),(P:0.25),(Ti:0.19),(Cr:0.21),(Ni:0.24),(Ge:0.29),(Zr:0.36),(Ba:0.55),(Eu:0.6),(Pb:63.41),(Th:0.1),(U:0.11)
##DET_HASH   : 12273538-fd48-a23f-0a19-f1e6fa85caef
##CALIB_HASH : 6abaa72c-aa41-8738-0be9-f592914732f3
##WORKING    : 15.0 mm
##DET_NAME   : EDAX All
##DET_MODE   : MediumLE
#SPECTRUM    :
21,
569,
11963,
7715,
28585,
7968,
7816,
7918,
9019,
10720,
10295,
11176,
50594,
38475,
10132,
10538,
19849,
152515,
25603,
12702,
5601,
6184,
7675,
5864,
5507,
5698,
5398,
5356,
5153,
5268,
5443,
5147,
7019,
5164,
5298,
5263,
4847,
4897,
4921,
4936,
4345,
4483,
4862,
4167,
4072,
4081,
4541,
3885,
3678,
3698,
3659,
3375,
3453,
3840,
3524,
3159,
3147,
3005,
2971,
2947,
2817,
2732,
2612,
2569,
2598,
2812,
2876,
2330,
2307,
2307,
2260,
2238,
2094,
1974,
3170,
11691,
6423,
1855,
1738,
1750,
1590,
1585,
1480,
1418,
1368,
1311,
1356,
1506,
1345,
2113,
5365,
2210,
1285,
1199,
998,
830,
868,
847,
737,
722,
700,
696,
665,
657,
655,
915,
778,
569,
585,
557,
501,
444,
452,
406,
362,
356,
320,
308,
266,
305,
269,
269,
217,
203,
214,
194,
182,
158,
147,
137,
123,
119,
97,
81,
83,
61,
73,
47,
49,
39,
29,
18,
10,
8,
2,
6,
4,
3,
0,
4,
4,
4,
4,
2,
3,
2,
2,
1,
1,
1,
2,
0,
3,
1,
5,
2,
2,
2,
1,
1,
0,
1,
0,
4,
1,
0,
0,
2,
1,
1,
1,
0,
1,
0,
0,
0,
0,
1,
1,
0,
0,
1,
0,
0,
0,
2,
1,
0,
0,
1,
1,
1,
0,
0,
2,
0,
0,
0,
0,
0,
0,
0,
0,
0,
0,
1,
0,
0,
0,
0,
0,
0,
0,
0,
0,
0,
0,
0,
0,
0,
0,
0,
0,
0,
1,
0,
0,
0,
0,
0,
0,
0,
0,
0,
0,
0,
0,
0,
0,
0,
0,
0,
0,
0,
0,
0,
0,
0,
0,
0,
0,
0,
0,
0,
0,
0,
0,
0,
0,
0,
0,
0,
0,
0,
0,
0,
0,
0,
0,
0,
0,
0,
0,
0,
0,
0,
0,
0,
0,
0,
0,
0,
0,
0,
#ENDOFDATA   :