File: N132962/Quantification/20 keV/Glass Mount IIIB/GM IIIB K1053[3][4].msa
#FORMAT      : EMSA/MAS Spectral Data File
#VERSION     : 1.0
#TITLE       : GM IIIB K1053[3][all]
#DATE        : 10-SEP-2025
#TIME        : 16:59
#OWNER       : Unknown
#NPOINTS     : 4096
#NCOLUMNS    : 1
#XUNITS      : eV
#YUNITS      : counts
#DATATYPE    : Y
#XPERCHAN    : 9.99778
#OFFSET      : 1.69135
#BEAMKV      : 20
#SIGNALTYPE  : EDS
#ELEVANGLE   : 35
#AZIMANGLE   : 0
#LIVETIME    : 240.281
#REALTIME    : 268.977
#PROBECUR    : 1.22416
#TAUWIND     : 0
#TDEADLYR    : 0
#TACTLYR     : 0.045
#TALWIND     : 0.025
#CHOFFSET    : 0.0
#XLABEL      : Energy (eV)
#YLABEL      : Counts
#XPOSITION   : 3.49728
#YPOSITION   : 13.85677
#ZPOSITION   : 34.06144
#EDSDET      : SD
##SPECIMEN   : GM IIIB K1053[3][all]
##D2STDCMP   : K1053,(O:16.13),(F:0.39),(Si:9.35),(Cl:0.64),(Br:1.09),(I:1.37),(Pb:71.02)
##DET_HASH   : 12273538-fd48-a23f-0a19-f1e6fa85caef
##CALIB_HASH : 6abaa72c-aa41-8738-0be9-f592914732f3
##WORKING    : 15.0 mm
##DET_NAME   : EDAX All
##DET_MODE   : MediumLE
#SPECTRUM    :
16,
739,
13957,
7333,
23508,
10322,
7666,
8322,
9027,
10228,
11575,
14758,
40285,
35831,
10115,
10459,
22580,
178351,
29935,
16256,
6242,
6576,
8271,
6195,
5639,
6128,
5859,
5937,
7550,
5911,
6668,
5803,
6345,
5674,
5783,
5446,
5333,
5313,
5102,
4983,
4987,
4747,
4761,
4617,
4512,
4585,
4776,
4301,
4100,
4088,
4024,
3908,
3740,
4037,
3723,
3697,
3458,
3325,
3342,
3336,
3160,
3016,
2972,
2888,
2800,
3205,
3227,
2661,
2568,
2436,
2487,
2366,
2255,
2357,
3461,
13707,
7430,
2096,
1962,
1902,
1853,
1859,
1717,
1597,
1617,
1839,
1677,
1556,
1548,
2301,
6082,
2622,
1419,
1468,
1128,
1134,
1022,
908,
903,
827,
853,
851,
741,
747,
728,
1004,
926,
673,
669,
654,
569,
462,
459,
483,
438,
392,
394,
324,
343,
328,
284,
284,
251,
272,
210,
203,
201,
186,
184,
154,
162,
132,
118,
101,
118,
104,
80,
44,
52,
39,
37,
19,
12,
5,
10,
5,
5,
3,
5,
5,
5,
2,
7,
4,
1,
3,
2,
4,
3,
2,
2,
2,
5,
3,
2,
4,
1,
2,
3,
4,
0,
2,
2,
0,
3,
1,
2,
0,
0,
1,
3,
2,
0,
1,
2,
1,
1,
2,
0,
0,
2,
0,
0,
1,
1,
0,
0,
0,
0,
1,
0,
1,
1,
1,
0,
0,
0,
0,
0,
0,
0,
0,
0,
0,
1,
0,
1,
0,
1,
0,
1,
0,
0,
0,
0,
0,
0,
0,
0,
0,
0,
0,
0,
0,
0,
0,
1,
0,
0,
0,
0,
0,
0,
0,
0,
0,
0,
0,
0,
0,
0,
0,
0,
0,
0,
0,
0,
0,
0,
0,
0,
0,
0,
0,
0,
0,
0,
0,
0,
0,
0,
0,
0,
0,
0,
0,
0,
0,
0,
0,
0,
0,
0,
0,
0,
0,
0,
0,
0,
0,
0,
0,
0,
0,
#ENDOFDATA   :