File: N132962/Quantification/20 keV/Glass Mount IIIB/GM IIIB K366[2][4].msa
#FORMAT      : EMSA/MAS Spectral Data File
#VERSION     : 1.0
#TITLE       : GM IIIB K366[2][all]
#DATE        : 10-SEP-2025
#TIME        : 18:26
#OWNER       : Unknown
#NPOINTS     : 4096
#NCOLUMNS    : 1
#XUNITS      : eV
#YUNITS      : counts
#DATATYPE    : Y
#XPERCHAN    : 9.99778
#OFFSET      : 1.69135
#BEAMKV      : 20
#SIGNALTYPE  : EDS
#ELEVANGLE   : 35
#AZIMANGLE   : 0
#LIVETIME    : 240.266
#REALTIME    : 267.6962
#PROBECUR    : 1.22475
#TAUWIND     : 0
#TDEADLYR    : 0
#TACTLYR     : 0.045
#TALWIND     : 0.025
#CHOFFSET    : 0.0
#XLABEL      : Energy (eV)
#YLABEL      : Counts
#XPOSITION   : 8.40204
#YPOSITION   : 3.0077
#ZPOSITION   : 34.00159
#EDSDET      : SD
##SPECIMEN   : GM IIIB K366[2][all]
##D2STDCMP   : K366,(O:20.43),(Si:13.45),(Pb:66.12)
##DET_HASH   : 12273538-fd48-a23f-0a19-f1e6fa85caef
##CALIB_HASH : 6abaa72c-aa41-8738-0be9-f592914732f3
##WORKING    : 15.0 mm
##DET_NAME   : EDAX All
##DET_MODE   : MediumLE
#SPECTRUM    :
41,
601,
12153,
7535,
27962,
8252,
7282,
7642,
8619,
9576,
10629,
11376,
52443,
40633,
9192,
9672,
20673,
160695,
26705,
12986,
5575,
6090,
7775,
5629,
5489,
5660,
5397,
5255,
5012,
5416,
5396,
5175,
5497,
5146,
5151,
5012,
4754,
4601,
4638,
4526,
4473,
4326,
4362,
4140,
4107,
4116,
4288,
3963,
3806,
3737,
3716,
3491,
3600,
3650,
3330,
3188,
3154,
3064,
3008,
2972,
2845,
2741,
2703,
2652,
2526,
2886,
2865,
2343,
2359,
2269,
2135,
2115,
2088,
2042,
3272,
12221,
6733,
1938,
1664,
1619,
1698,
1637,
1594,
1452,
1386,
1456,
1372,
1498,
1409,
2001,
5518,
2319,
1252,
1272,
992,
870,
842,
840,
758,
799,
801,
707,
636,
650,
663,
897,
706,
616,
605,
549,
504,
484,
454,
389,
427,
390,
363,
339,
322,
272,
253,
259,
219,
195,
222,
192,
175,
158,
173,
130,
139,
120,
108,
91,
87,
74,
69,
55,
35,
33,
23,
19,
16,
7,
3,
4,
0,
1,
1,
3,
3,
5,
1,
2,
1,
3,
1,
3,
3,
3,
2,
1,
3,
2,
4,
0,
2,
2,
0,
0,
0,
2,
0,
2,
1,
0,
0,
0,
0,
0,
1,
0,
0,
0,
1,
1,
4,
0,
1,
2,
0,
0,
1,
0,
1,
0,
0,
1,
0,
0,
0,
3,
0,
0,
0,
0,
0,
0,
0,
1,
0,
1,
1,
0,
0,
0,
1,
0,
0,
0,
0,
0,
0,
0,
0,
0,
0,
0,
0,
0,
0,
0,
0,
0,
0,
0,
0,
1,
0,
0,
0,
0,
0,
0,
0,
0,
0,
0,
0,
0,
0,
0,
0,
0,
0,
0,
0,
0,
0,
0,
0,
0,
0,
0,
0,
0,
0,
0,
0,
0,
0,
0,
0,
0,
0,
0,
0,
0,
0,
0,
0,
0,
0,
0,
0,
0,
0,
0,
0,
0,
0,
0,
0,
0,
#ENDOFDATA   :