File: N132962/Quantification/20 keV/Glass Mount IIIB/GM IIIB K497[1][4].msa
#FORMAT      : EMSA/MAS Spectral Data File
#VERSION     : 1.0
#TITLE       : GM IIIB K497[1][all]
#DATE        : 11-SEP-2025
#TIME        : 09:38
#OWNER       : Unknown
#NPOINTS     : 4096
#NCOLUMNS    : 1
#XUNITS      : eV
#YUNITS      : counts
#DATATYPE    : Y
#XPERCHAN    : 9.99778
#OFFSET      : 1.69135
#BEAMKV      : 20
#SIGNALTYPE  : EDS
#ELEVANGLE   : 35
#AZIMANGLE   : 0
#LIVETIME    : 240.151
#REALTIME    : 258.851
#PROBECUR    : 1.22303
#TAUWIND     : 0
#TDEADLYR    : 0
#TACTLYR     : 0.045
#TALWIND     : 0.025
#CHOFFSET    : 0.0
#XLABEL      : Energy (eV)
#YLABEL      : Counts
#XPOSITION   : 12.88194
#YPOSITION   : 10.19038
#ZPOSITION   : 34.00161
#EDSDET      : SD
##SPECIMEN   : GM IIIB K497[1][all]
##D2STDCMP   : K497,(B:0.05),(O:52.45),(Mg:5.21),(Al:5.78),(Si:0.13),(P:33.18),(Ti:0.21),(Fe:0.24),(Zr:0.4),(Ce:0.62),(Ta:0.8),(Pb:0.92)
##DET_HASH   : 12273538-fd48-a23f-0a19-f1e6fa85caef
##CALIB_HASH : 6abaa72c-aa41-8738-0be9-f592914732f3
##WORKING    : 15.0 mm
##DET_NAME   : EDAX All
##DET_MODE   : MediumLE
#SPECTRUM    :
22,
288,
10413,
9480,
77626,
2946,
3298,
4213,
5058,
64746,
8334,
23297,
7496,
7066,
114516,
33035,
3388,
4076,
3671,
2718,
2530,
2553,
2396,
2532,
2423,
2446,
2584,
2277,
2140,
2439,
1944,
1918,
2531,
1864,
1941,
2136,
1550,
1539,
1690,
1390,
1520,
1348,
1233,
1235,
1189,
1249,
1537,
1054,
1015,
1003,
977,
980,
915,
900,
914,
803,
757,
814,
1046,
761,
654,
675,
605,
623,
601,
554,
596,
636,
550,
551,
487,
465,
438,
455,
445,
509,
435,
375,
342,
359,
320,
303,
285,
297,
298,
247,
253,
234,
208,
224,
242,
228,
198,
186,
170,
167,
141,
151,
153,
125,
118,
120,
110,
111,
112,
85,
91,
80,
62,
80,
59,
53,
77,
55,
54,
56,
41,
47,
28,
24,
33,
32,
44,
23,
25,
26,
26,
17,
13,
15,
19,
11,
5,
10,
8,
1,
3,
1,
2,
4,
0,
2,
2,
0,
0,
0,
0,
1,
0,
0,
0,
0,
0,
0,
0,
2,
0,
0,
0,
0,
0,
0,
0,
0,
0,
0,
0,
0,
0,
0,
0,
0,
0,
0,
0,
0,
0,
0,
0,
0,
0,
0,
0,
0,
0,
0,
0,
0,
0,
0,
0,
0,
0,
0,
0,
0,
0,
0,
0,
0,
0,
0,
0,
0,
0,
0,
0,
0,
0,
0,
0,
0,
0,
0,
0,
0,
0,
0,
0,
0,
0,
0,
0,
0,
0,
0,
0,
0,
0,
0,
0,
0,
0,
0,
0,
0,
0,
0,
0,
0,
0,
0,
0,
0,
0,
0,
0,
0,
0,
0,
0,
0,
0,
0,
0,
0,
0,
0,
0,
0,
0,
0,
0,
0,
0,
0,
0,
0,
0,
0,
0,
0,
0,
0,
0,
0,
0,
0,
0,
0,
0,
0,
0,
0,
0,
0,
0,
0,
0,
0,
0,
0,
0,
0,
#ENDOFDATA   :