File: N132962/Quantification/20 keV/Glass Mount IIIB/GM IIIB K497[6][4].msa
#FORMAT      : EMSA/MAS Spectral Data File
#VERSION     : 1.0
#TITLE       : GM IIIB K497[6][all]
#DATE        : 11-SEP-2025
#TIME        : 09:44
#OWNER       : Unknown
#NPOINTS     : 4096
#NCOLUMNS    : 1
#XUNITS      : eV
#YUNITS      : counts
#DATATYPE    : Y
#XPERCHAN    : 9.99778
#OFFSET      : 1.69135
#BEAMKV      : 20
#SIGNALTYPE  : EDS
#ELEVANGLE   : 35
#AZIMANGLE   : 0
#LIVETIME    : 240.153
#REALTIME    : 258.985
#PROBECUR    : 1.22337
#TAUWIND     : 0
#TDEADLYR    : 0
#TACTLYR     : 0.045
#TALWIND     : 0.025
#CHOFFSET    : 0.0
#XLABEL      : Energy (eV)
#YLABEL      : Counts
#XPOSITION   : 12.87953
#YPOSITION   : 10.27209
#ZPOSITION   : 34.00161
#EDSDET      : SD
##SPECIMEN   : GM IIIB K497[6][all]
##D2STDCMP   : K497,(B:0.05),(O:52.45),(Mg:5.21),(Al:5.78),(Si:0.13),(P:33.18),(Ti:0.21),(Fe:0.24),(Zr:0.4),(Ce:0.62),(Ta:0.8),(Pb:0.92)
##DET_HASH   : 12273538-fd48-a23f-0a19-f1e6fa85caef
##CALIB_HASH : 6abaa72c-aa41-8738-0be9-f592914732f3
##WORKING    : 15.0 mm
##DET_NAME   : EDAX All
##DET_MODE   : MediumLE
#SPECTRUM    :
20,
249,
10487,
9007,
75770,
2922,
3287,
4142,
5099,
64027,
8369,
23809,
7436,
6832,
116062,
33719,
3382,
4186,
3701,
2763,
2614,
2597,
2505,
2536,
2503,
2443,
2597,
2355,
2230,
2470,
1905,
1884,
2731,
1758,
1949,
2172,
1529,
1675,
1754,
1510,
1572,
1385,
1368,
1328,
1257,
1356,
1632,
1122,
1089,
1023,
983,
1004,
931,
935,
862,
814,
782,
806,
1032,
828,
714,
682,
663,
641,
581,
634,
643,
710,
634,
589,
474,
468,
458,
446,
450,
543,
438,
401,
393,
351,
390,
304,
326,
303,
272,
280,
286,
259,
264,
262,
270,
205,
223,
210,
195,
166,
157,
169,
195,
167,
130,
120,
119,
125,
109,
105,
101,
102,
87,
78,
79,
94,
76,
62,
68,
58,
50,
49,
49,
33,
44,
44,
41,
28,
26,
26,
23,
17,
23,
15,
20,
17,
11,
17,
5,
9,
13,
7,
5,
5,
5,
3,
1,
0,
0,
1,
0,
0,
0,
1,
0,
0,
0,
0,
0,
0,
0,
0,
0,
0,
0,
0,
0,
0,
0,
0,
0,
0,
0,
0,
0,
0,
0,
0,
0,
0,
0,
0,
0,
0,
0,
0,
0,
0,
0,
0,
0,
0,
0,
0,
0,
0,
0,
0,
0,
0,
0,
0,
0,
0,
0,
0,
0,
0,
1,
0,
0,
0,
0,
0,
0,
0,
0,
0,
0,
0,
0,
0,
0,
0,
0,
0,
0,
0,
0,
0,
0,
0,
0,
0,
0,
0,
0,
0,
0,
0,
0,
0,
0,
0,
0,
0,
0,
0,
0,
0,
0,
0,
0,
0,
0,
0,
0,
0,
0,
0,
0,
0,
0,
0,
0,
0,
0,
0,
0,
0,
0,
0,
0,
0,
0,
0,
0,
0,
0,
0,
0,
0,
0,
0,
0,
0,
0,
0,
0,
0,
0,
0,
0,
0,
0,
0,
0,
0,
#ENDOFDATA   :