File: N132962/Quantification/20 keV/Glass Mount IIIB/GM IIIB K249[4][4].msa
#FORMAT      : EMSA/MAS Spectral Data File
#VERSION     : 1.0
#TITLE       : GM IIIB K249[4][all]
#DATE        : 10-SEP-2025
#TIME        : 18:52
#OWNER       : Unknown
#NPOINTS     : 4096
#NCOLUMNS    : 1
#XUNITS      : eV
#YUNITS      : counts
#DATATYPE    : Y
#XPERCHAN    : 9.99778
#OFFSET      : 1.69135
#BEAMKV      : 20
#SIGNALTYPE  : EDS
#ELEVANGLE   : 35
#AZIMANGLE   : 0
#LIVETIME    : 240.137
#REALTIME    : 264.752
#PROBECUR    : 1.2221
#TAUWIND     : 0
#TDEADLYR    : 0
#TACTLYR     : 0.045
#TALWIND     : 0.025
#CHOFFSET    : 0.0
#XLABEL      : Energy (eV)
#YLABEL      : Counts
#XPOSITION   : 10.1776
#YPOSITION   : 0.81836
#ZPOSITION   : 34.00159
#EDSDET      : SD
##SPECIMEN   : GM IIIB K249[4][all]
##D2STDCMP   : K249,(O:24.49),(Al:2.65),(Si:14.02),(Ba:8.96),(Ta:8.19),(Pb:39.45),(Bi:2.24)
##DET_HASH   : 12273538-fd48-a23f-0a19-f1e6fa85caef
##CALIB_HASH : 6abaa72c-aa41-8738-0be9-f592914732f3
##WORKING    : 15.0 mm
##DET_NAME   : EDAX All
##DET_MODE   : MediumLE
#SPECTRUM    :
29,
452,
10573,
7862,
35236,
6975,
6760,
7248,
7614,
8537,
10802,
18051,
69567,
35919,
8129,
7267,
13316,
88442,
19186,
9867,
5316,
5623,
6729,
5539,
5187,
5277,
5065,
5115,
5190,
5141,
4845,
5587,
18349,
4839,
7022,
8390,
4844,
6148,
4015,
4318,
4432,
4080,
3897,
3738,
3542,
3544,
3658,
3366,
3308,
3167,
3097,
3213,
3007,
3044,
2926,
2711,
2658,
2829,
6564,
3324,
2548,
2309,
2369,
2221,
2189,
2520,
3086,
3400,
2311,
2493,
1917,
1805,
1696,
1700,
2271,
7345,
4287,
1909,
1856,
1415,
1495,
1468,
1226,
1235,
1227,
1172,
1191,
1171,
1127,
1466,
3363,
1531,
1032,
1113,
853,
768,
739,
734,
673,
689,
628,
591,
582,
554,
539,
650,
533,
456,
470,
462,
369,
317,
309,
346,
304,
297,
265,
260,
232,
211,
216,
191,
175,
191,
151,
136,
130,
139,
111,
106,
98,
84,
88,
79,
59,
62,
54,
44,
27,
26,
29,
15,
5,
2,
3,
6,
1,
4,
3,
1,
0,
0,
0,
1,
3,
1,
0,
6,
1,
0,
2,
1,
2,
0,
1,
1,
1,
2,
1,
0,
2,
1,
3,
0,
0,
0,
1,
0,
1,
0,
1,
0,
2,
1,
0,
0,
0,
0,
0,
0,
1,
0,
1,
0,
0,
1,
0,
0,
0,
0,
0,
0,
1,
0,
0,
1,
0,
0,
0,
0,
0,
0,
0,
0,
0,
0,
0,
0,
0,
0,
0,
0,
0,
0,
0,
0,
1,
0,
0,
0,
0,
0,
0,
0,
0,
0,
0,
0,
0,
0,
0,
0,
0,
0,
0,
0,
0,
0,
0,
0,
0,
0,
0,
0,
0,
0,
0,
0,
0,
0,
0,
0,
0,
0,
0,
0,
0,
0,
0,
0,
0,
0,
0,
0,
0,
0,
0,
0,
0,
0,
0,
0,
0,
0,
0,
0,
0,
0,
0,
0,
0,
0,
0,
0,
#ENDOFDATA   :