File: N132962/Quantification/20 keV/Glass Mount IIIB/GM IIIB K252[0][4].msa
#FORMAT      : EMSA/MAS Spectral Data File
#VERSION     : 1.0
#TITLE       : GM IIIB K252[0][all]
#DATE        : 10-SEP-2025
#TIME        : 18:59
#OWNER       : Unknown
#NPOINTS     : 4096
#NCOLUMNS    : 1
#XUNITS      : eV
#YUNITS      : counts
#DATATYPE    : Y
#XPERCHAN    : 9.99778
#OFFSET      : 1.69135
#BEAMKV      : 20
#SIGNALTYPE  : EDS
#ELEVANGLE   : 35
#AZIMANGLE   : 0
#LIVETIME    : 240.208
#REALTIME    : 261.478
#PROBECUR    : 1.2221
#TAUWIND     : 0
#TDEADLYR    : 0
#TACTLYR     : 0.045
#TALWIND     : 0.025
#CHOFFSET    : 0.0
#XLABEL      : Energy (eV)
#YLABEL      : Counts
#XPOSITION   : 5.60879
#YPOSITION   : 0.65714
#ZPOSITION   : 34.00159
#EDSDET      : SD
##SPECIMEN   : GM IIIB K252[0][all]
##D2STDCMP   : K252,(O:30.83),(Si:18.7),(Mn:3.16),(Co:3.93),(Cu:3.99),(Zn:8.03),(Ba:31.35)
##DET_HASH   : 12273538-fd48-a23f-0a19-f1e6fa85caef
##CALIB_HASH : 6abaa72c-aa41-8738-0be9-f592914732f3
##WORKING    : 15.0 mm
##DET_NAME   : EDAX All
##DET_MODE   : MediumLE
#SPECTRUM    :
33,
334,
7815,
10674,
69466,
7424,
7728,
23310,
4951,
4591,
5215,
6359,
48373,
24410,
4711,
4822,
5452,
5043,
5070,
5206,
4939,
4815,
4955,
4632,
4559,
4599,
4379,
4379,
5538,
4344,
4037,
7225,
54628,
4462,
13345,
17675,
5064,
11073,
3156,
4257,
4349,
3707,
11198,
3273,
2426,
2426,
3348,
2569,
2199,
5833,
4979,
1980,
1946,
2075,
2205,
2457,
1833,
4919,
3786,
1599,
1633,
4947,
7552,
1870,
1785,
1368,
1324,
1335,
2208,
1658,
1158,
1131,
1081,
1050,
1033,
985,
950,
909,
910,
924,
862,
798,
766,
759,
729,
706,
677,
672,
654,
578,
538,
521,
564,
495,
503,
474,
443,
431,
421,
364,
354,
336,
304,
340,
308,
291,
268,
279,
253,
253,
211,
208,
179,
196,
172,
154,
149,
128,
138,
121,
122,
111,
107,
84,
86,
98,
75,
69,
59,
71,
59,
41,
45,
35,
28,
24,
23,
21,
27,
18,
12,
7,
5,
3,
1,
0,
0,
2,
1,
2,
0,
0,
3,
0,
1,
0,
1,
0,
1,
0,
0,
0,
0,
1,
1,
0,
0,
0,
0,
0,
1,
0,
1,
0,
0,
0,
1,
1,
0,
0,
0,
0,
0,
0,
0,
0,
1,
0,
1,
0,
1,
0,
0,
0,
0,
1,
0,
1,
0,
0,
0,
0,
0,
0,
0,
0,
0,
0,
0,
0,
0,
0,
0,
0,
0,
0,
0,
0,
0,
0,
0,
0,
0,
0,
0,
0,
0,
0,
0,
0,
0,
0,
0,
0,
0,
0,
0,
0,
0,
0,
0,
0,
0,
0,
0,
0,
0,
0,
0,
0,
0,
0,
0,
0,
0,
0,
0,
0,
0,
0,
0,
0,
0,
0,
0,
0,
0,
0,
0,
0,
0,
0,
0,
0,
0,
0,
0,
0,
0,
0,
0,
0,
0,
0,
0,
0,
0,
0,
0,
0,
0,
0,
0,
0,
#ENDOFDATA   :