File: N132962/Quantification/20 keV/Glass Mount IIIB/GM IIIB K968[0][4].msa
#FORMAT      : EMSA/MAS Spectral Data File
#VERSION     : 1.0
#TITLE       : GM IIIB K968[0][all]
#DATE        : 10-SEP-2025
#TIME        : 16:20
#OWNER       : Unknown
#NPOINTS     : 4096
#NCOLUMNS    : 1
#XUNITS      : eV
#YUNITS      : counts
#DATATYPE    : Y
#XPERCHAN    : 9.99778
#OFFSET      : 1.69135
#BEAMKV      : 20
#SIGNALTYPE  : EDS
#ELEVANGLE   : 35
#AZIMANGLE   : 0
#LIVETIME    : 240.246
#REALTIME    : 266.6
#PROBECUR    : 1.22413
#TAUWIND     : 0
#TDEADLYR    : 0
#TACTLYR     : 0.045
#TALWIND     : 0.025
#CHOFFSET    : 0.0
#XLABEL      : Energy (eV)
#YLABEL      : Counts
#XPOSITION   : 7.16612
#YPOSITION   : 12.22077
#ZPOSITION   : 34.06144
#EDSDET      : SD
##SPECIMEN   : GM IIIB K968[0][all]
##D2STDCMP   : K968,(O:16.62),(Mg:0.08),(P:0.2),(Ti:0.16),(Cr:0.17),(Ni:0.19),(Ge:26.27),(Zr:0.3),(Ba:0.45),(Eu:0.49),(Pb:54.91),(Th:0.08),(U:0.09)
##DET_HASH   : 12273538-fd48-a23f-0a19-f1e6fa85caef
##CALIB_HASH : 6abaa72c-aa41-8738-0be9-f592914732f3
##WORKING    : 15.0 mm
##DET_NAME   : EDAX All
##DET_MODE   : MediumLE
#SPECTRUM    :
31,
575,
11521,
7501,
25257,
8897,
8619,
10263,
26067,
37970,
7776,
8249,
9254,
16941,
9818,
10067,
17964,
128969,
23012,
12247,
5943,
6676,
7927,
6335,
5758,
6087,
5776,
5862,
5612,
5455,
5535,
5483,
7200,
5466,
5440,
5513,
5158,
5202,
4920,
5130,
4682,
4711,
4881,
4349,
4204,
4422,
4700,
4059,
3898,
3946,
3707,
3598,
3532,
4032,
3593,
3232,
3268,
3170,
3110,
3024,
2845,
2825,
2853,
2665,
2623,
2878,
2928,
2420,
2407,
2662,
13728,
13488,
2489,
2124,
3050,
10928,
6112,
2010,
3865,
3077,
1680,
1626,
1574,
1501,
1492,
1452,
1413,
1559,
1398,
1886,
4640,
2084,
1212,
1254,
1062,
931,
921,
795,
806,
780,
774,
668,
689,
706,
635,
874,
773,
563,
647,
568,
468,
467,
428,
408,
334,
384,
333,
320,
347,
282,
265,
278,
241,
236,
215,
203,
205,
179,
167,
122,
126,
108,
107,
84,
92,
74,
58,
66,
47,
46,
28,
17,
9,
15,
2,
6,
5,
4,
4,
7,
5,
5,
3,
2,
2,
6,
6,
4,
2,
6,
0,
4,
1,
2,
2,
2,
3,
4,
0,
2,
3,
2,
2,
0,
0,
2,
2,
4,
1,
0,
2,
1,
1,
1,
2,
2,
2,
1,
1,
0,
1,
2,
0,
1,
2,
1,
0,
0,
0,
0,
1,
0,
1,
0,
0,
0,
0,
0,
0,
0,
0,
0,
0,
0,
0,
1,
0,
0,
0,
1,
0,
0,
0,
0,
1,
0,
0,
0,
0,
0,
0,
0,
0,
0,
0,
0,
0,
0,
0,
0,
0,
0,
0,
0,
0,
0,
0,
0,
0,
0,
0,
0,
0,
0,
0,
0,
0,
0,
0,
0,
0,
0,
0,
0,
0,
0,
0,
0,
0,
0,
0,
0,
0,
0,
0,
0,
0,
0,
0,
0,
0,
0,
0,
0,
0,
0,
0,
0,
0,
0,
0,
0,
0,
0,
#ENDOFDATA   :