File: N132962/Quantification/20 keV/Glass Mount IIIB/GM IIIA K1010[2][4].msa
#FORMAT      : EMSA/MAS Spectral Data File
#VERSION     : 1.0
#TITLE       : K1010 IIIA K1010[2][all]
#DATE        : 18-SEP-2025
#TIME        : 10:09
#OWNER       : Unknown
#NPOINTS     : 4096
#NCOLUMNS    : 1
#XUNITS      : eV
#YUNITS      : counts
#DATATYPE    : Y
#XPERCHAN    : 9.99778
#OFFSET      : 1.69135
#BEAMKV      : 20
#SIGNALTYPE  : EDS
#ELEVANGLE   : 35
#AZIMANGLE   : 0
#LIVETIME    : 240.158
#REALTIME    : 259.938
#PROBECUR    : 1.21237
#TAUWIND     : 0
#TDEADLYR    : 0
#TACTLYR     : 0.045
#TALWIND     : 0.025
#CHOFFSET    : 0.0
#XLABEL      : Energy (eV)
#YLABEL      : Counts
#XPOSITION   : 10.51443
#YPOSITION   : 15.55101
#ZPOSITION   : 37.3512
#EDSDET      : SD
##SPECIMEN   : K1010 IIIA K1010[2][all]
##DET_HASH   : 12273538-fd48-a23f-0a19-f1e6fa85caef
##CALIB_HASH : 6abaa72c-aa41-8738-0be9-f592914732f3
##WORKING    : 15.0 mm
##DET_NAME   : EDAX All
##DET_MODE   : MediumLE
#SPECTRUM    :
23,
254,
7056,
6629,
47287,
3608,
4964,
5319,
8786,
8184,
11815,
35944,
70147,
72564,
6242,
3708,
4111,
3590,
3608,
3703,
3561,
3649,
3551,
5037,
9872,
3917,
23812,
10271,
3834,
6309,
3624,
4683,
2976,
6191,
2851,
2899,
3622,
2615,
2585,
2383,
2053,
2556,
3449,
3585,
2101,
1867,
2666,
2061,
2407,
2003,
1588,
1620,
1447,
1511,
1409,
1344,
1294,
1197,
1198,
1148,
1078,
1049,
1017,
956,
976,
955,
913,
859,
875,
851,
1379,
1307,
692,
766,
642,
640,
654,
602,
675,
589,
592,
542,
505,
525,
470,
441,
400,
421,
368,
386,
394,
380,
303,
322,
336,
422,
425,
309,
269,
223,
387,
707,
361,
186,
186,
153,
178,
189,
161,
142,
138,
128,
153,
173,
106,
96,
93,
89,
76,
79,
78,
68,
56,
75,
59,
46,
37,
41,
37,
40,
33,
21,
31,
20,
20,
17,
9,
7,
13,
8,
5,
6,
3,
1,
0,
0,
0,
0,
0,
0,
0,
0,
0,
0,
0,
2,
0,
0,
1,
0,
0,
0,
0,
0,
0,
0,
0,
0,
0,
0,
0,
0,
0,
0,
0,
0,
0,
1,
0,
0,
0,
0,
0,
0,
0,
0,
0,
0,
0,
0,
0,
0,
0,
0,
0,
0,
0,
0,
0,
0,
0,
0,
0,
0,
0,
0,
0,
0,
0,
0,
0,
0,
0,
0,
0,
0,
0,
0,
0,
0,
0,
0,
0,
0,
0,
0,
0,
0,
0,
0,
0,
0,
0,
0,
0,
0,
0,
0,
0,
0,
0,
0,
0,
0,
0,
0,
0,
0,
0,
0,
0,
0,
0,
0,
0,
0,
0,
0,
0,
0,
0,
0,
0,
0,
0,
0,
0,
0,
0,
0,
0,
0,
0,
0,
0,
0,
0,
0,
0,
0,
0,
0,
0,
0,
0,
0,
0,
0,
0,
0,
0,
0,
0,
0,
#ENDOFDATA   :