File: N132962/Quantification/20 keV/Glass Mount IIIB/GM IIIB K249[3][4].msa
#FORMAT      : EMSA/MAS Spectral Data File
#VERSION     : 1.0
#TITLE       : GM IIIB K249[3][all]
#DATE        : 10-SEP-2025
#TIME        : 18:50
#OWNER       : Unknown
#NPOINTS     : 4096
#NCOLUMNS    : 1
#XUNITS      : eV
#YUNITS      : counts
#DATATYPE    : Y
#XPERCHAN    : 9.99778
#OFFSET      : 1.69135
#BEAMKV      : 20
#SIGNALTYPE  : EDS
#ELEVANGLE   : 35
#AZIMANGLE   : 0
#LIVETIME    : 240.182
#REALTIME    : 264.805
#PROBECUR    : 1.2221
#TAUWIND     : 0
#TDEADLYR    : 0
#TACTLYR     : 0.045
#TALWIND     : 0.025
#CHOFFSET    : 0.0
#XLABEL      : Energy (eV)
#YLABEL      : Counts
#XPOSITION   : 10.20145
#YPOSITION   : 0.74285
#ZPOSITION   : 34.00159
#EDSDET      : SD
##SPECIMEN   : GM IIIB K249[3][all]
##D2STDCMP   : K249,(O:24.49),(Al:2.65),(Si:14.02),(Ba:8.96),(Ta:8.19),(Pb:39.45),(Bi:2.24)
##DET_HASH   : 12273538-fd48-a23f-0a19-f1e6fa85caef
##CALIB_HASH : 6abaa72c-aa41-8738-0be9-f592914732f3
##WORKING    : 15.0 mm
##DET_NAME   : EDAX All
##DET_MODE   : MediumLE
#SPECTRUM    :
25,
466,
10271,
7911,
35432,
6800,
6736,
7528,
7499,
8537,
11029,
17692,
69716,
35919,
8002,
7318,
13386,
88201,
18978,
9929,
5361,
5593,
6652,
5482,
5166,
5261,
4964,
5018,
5236,
4989,
4903,
5557,
17908,
4912,
7111,
8267,
4850,
6308,
4055,
4395,
4345,
4035,
3881,
3674,
3522,
3594,
3769,
3327,
3245,
3166,
3169,
3135,
2961,
3091,
2878,
2704,
2604,
2908,
6547,
3362,
2478,
2328,
2234,
2228,
2161,
2358,
3084,
3464,
2458,
2638,
1981,
1843,
1781,
1695,
2252,
7389,
4274,
1953,
1810,
1464,
1440,
1354,
1264,
1240,
1146,
1138,
1121,
1096,
1148,
1475,
3459,
1589,
1084,
1128,
840,
749,
687,
647,
633,
654,
620,
555,
567,
518,
495,
713,
523,
483,
464,
426,
394,
345,
351,
336,
313,
313,
267,
249,
215,
206,
212,
203,
183,
178,
155,
143,
150,
122,
116,
106,
104,
94,
87,
77,
63,
59,
46,
39,
36,
33,
19,
13,
12,
3,
3,
7,
3,
2,
2,
3,
4,
5,
1,
2,
4,
0,
0,
0,
1,
1,
0,
0,
0,
1,
0,
3,
0,
0,
0,
0,
3,
1,
0,
1,
0,
1,
0,
0,
0,
0,
1,
1,
2,
0,
3,
1,
0,
1,
1,
0,
0,
2,
0,
0,
0,
0,
1,
0,
1,
0,
0,
1,
0,
0,
0,
0,
0,
1,
0,
0,
0,
0,
0,
0,
0,
0,
0,
0,
0,
0,
0,
0,
0,
0,
0,
0,
0,
0,
0,
0,
0,
0,
0,
0,
0,
0,
0,
0,
0,
0,
0,
0,
0,
0,
0,
0,
0,
0,
0,
0,
0,
0,
0,
0,
0,
0,
0,
0,
0,
0,
0,
0,
0,
0,
0,
0,
0,
0,
0,
0,
0,
0,
0,
0,
0,
0,
0,
0,
0,
0,
0,
0,
0,
0,
0,
0,
0,
0,
0,
0,
0,
0,
0,
0,
#ENDOFDATA   :