File: N132962/Quantification/20 keV/Glass Mount IIIB/GM IIIB K1234[2][4].msa
#FORMAT      : EMSA/MAS Spectral Data File
#VERSION     : 1.0
#TITLE       : GM IIIB K1234[2][all]
#DATE        : 10-SEP-2025
#TIME        : 17:56
#OWNER       : Unknown
#NPOINTS     : 4096
#NCOLUMNS    : 1
#XUNITS      : eV
#YUNITS      : counts
#DATATYPE    : Y
#XPERCHAN    : 9.99778
#OFFSET      : 1.69135
#BEAMKV      : 20
#SIGNALTYPE  : EDS
#ELEVANGLE   : 35
#AZIMANGLE   : 0
#LIVETIME    : 240.231
#REALTIME    : 259.76
#PROBECUR    : 1.22375
#TAUWIND     : 0
#TDEADLYR    : 0
#TACTLYR     : 0.045
#TALWIND     : 0.025
#CHOFFSET    : 0.0
#XLABEL      : Energy (eV)
#YLABEL      : Counts
#XPOSITION   : 0.654
#YPOSITION   : 15.81859
#ZPOSITION   : 34.06144
#EDSDET      : SD
##SPECIMEN   : GM IIIB K1234[2][all]
##D2STDCMP   : K1234,(O:39.85),(Al:9.15),(Si:21.56),(Ca:12.36),(Ba:15.49),(W:1.59)
##DET_HASH   : 12273538-fd48-a23f-0a19-f1e6fa85caef
##CALIB_HASH : 6abaa72c-aa41-8738-0be9-f592914732f3
##WORKING    : 15.0 mm
##DET_NAME   : EDAX All
##DET_MODE   : MediumLE
#SPECTRUM    :
26,
251,
9903,
6840,
50810,
3848,
3992,
5273,
4823,
5420,
10925,
32670,
58995,
33026,
4629,
3874,
4470,
4009,
3787,
4048,
3832,
3774,
3669,
3824,
3550,
3933,
39779,
14652,
5270,
8688,
2813,
4136,
24939,
3036,
6698,
8705,
3169,
5657,
2290,
2740,
2701,
2329,
2072,
1838,
1694,
1677,
1742,
1700,
1548,
1517,
1453,
1349,
1407,
1471,
1330,
1298,
1183,
1123,
1149,
1249,
1722,
1055,
1046,
1048,
982,
921,
920,
843,
924,
1072,
892,
885,
794,
732,
721,
609,
638,
651,
608,
587,
596,
557,
504,
539,
467,
468,
463,
460,
439,
367,
380,
364,
323,
300,
312,
299,
278,
283,
296,
228,
214,
225,
215,
202,
180,
171,
160,
181,
158,
160,
140,
116,
129,
120,
109,
95,
72,
97,
84,
78,
75,
63,
59,
61,
50,
50,
51,
35,
36,
39,
26,
26,
23,
16,
25,
18,
27,
14,
8,
5,
7,
5,
3,
0,
1,
1,
0,
0,
0,
0,
0,
2,
1,
0,
0,
0,
1,
0,
0,
1,
0,
0,
0,
0,
0,
0,
0,
0,
0,
0,
0,
0,
0,
0,
0,
1,
0,
0,
0,
0,
0,
0,
0,
0,
0,
0,
0,
0,
0,
0,
0,
0,
0,
0,
0,
0,
0,
0,
0,
0,
0,
0,
0,
0,
0,
0,
0,
0,
0,
0,
0,
0,
0,
0,
0,
0,
0,
0,
0,
0,
0,
0,
0,
0,
0,
0,
0,
0,
0,
0,
0,
0,
0,
0,
0,
0,
0,
0,
0,
0,
0,
0,
0,
0,
0,
0,
0,
0,
0,
0,
0,
0,
0,
0,
0,
0,
0,
0,
0,
0,
0,
0,
0,
0,
0,
0,
0,
0,
0,
0,
0,
0,
0,
0,
0,
0,
0,
0,
0,
0,
0,
0,
0,
0,
0,
0,
0,
0,
0,
0,
0,
0,
0,
0,
#ENDOFDATA   :