File: N132962/Quantification/20 keV/Glass Mount IIIB/GM IIIB K523[2][4].msa
#FORMAT      : EMSA/MAS Spectral Data File
#VERSION     : 1.0
#TITLE       : GM IIIB K523[2][all]
#DATE        : 11-SEP-2025
#TIME        : 09:15
#OWNER       : Unknown
#NPOINTS     : 4096
#NCOLUMNS    : 1
#XUNITS      : eV
#YUNITS      : counts
#DATATYPE    : Y
#XPERCHAN    : 9.99778
#OFFSET      : 1.69135
#BEAMKV      : 20
#SIGNALTYPE  : EDS
#ELEVANGLE   : 35
#AZIMANGLE   : 0
#LIVETIME    : 240.203
#REALTIME    : 267.2454
#PROBECUR    : 1.22303
#TAUWIND     : 0
#TDEADLYR    : 0
#TACTLYR     : 0.045
#TALWIND     : 0.025
#CHOFFSET    : 0.0
#XLABEL      : Energy (eV)
#YLABEL      : Counts
#XPOSITION   : 1.5912
#YPOSITION   : 9.71189
#ZPOSITION   : 34.00161
#EDSDET      : SD
##SPECIMEN   : GM IIIB K523[2][all]
##D2STDCMP   : K523,(O:20.71),(Mg:0.1),(Si:12.9),(P:0.25),(Ti:0.19),(Cr:0.21),(Ni:0.24),(Ge:0.29),(Zr:0.36),(Ba:0.55),(Eu:0.6),(Pb:63.41),(Th:0.1),(U:0.11)
##DET_HASH   : 12273538-fd48-a23f-0a19-f1e6fa85caef
##CALIB_HASH : 6abaa72c-aa41-8738-0be9-f592914732f3
##WORKING    : 15.0 mm
##DET_NAME   : EDAX All
##DET_MODE   : MediumLE
#SPECTRUM    :
20,
563,
11661,
7532,
28567,
8041,
7818,
7769,
9266,
10627,
10193,
11289,
50711,
38373,
10168,
10356,
19664,
151725,
25539,
12438,
5683,
6323,
7879,
6019,
5528,
5420,
5415,
5341,
5137,
5421,
5277,
5259,
6966,
5200,
5194,
5222,
4879,
4733,
4782,
4975,
4459,
4551,
4818,
4239,
4087,
4169,
4666,
3884,
3760,
3729,
3672,
3424,
3347,
3921,
3537,
3229,
3052,
2952,
2915,
2972,
2789,
2725,
2704,
2622,
2536,
2867,
2852,
2360,
2312,
2276,
2402,
2214,
2040,
2034,
3109,
11975,
6438,
1826,
1792,
1761,
1574,
1583,
1463,
1373,
1436,
1318,
1402,
1442,
1435,
1943,
5189,
2234,
1226,
1254,
985,
910,
880,
821,
810,
771,
743,
727,
690,
668,
624,
853,
754,
610,
629,
501,
447,
411,
397,
375,
376,
337,
328,
324,
281,
280,
304,
242,
244,
207,
188,
197,
174,
156,
139,
135,
118,
127,
113,
91,
89,
79,
66,
60,
46,
32,
29,
14,
13,
8,
2,
5,
3,
3,
5,
5,
3,
6,
2,
4,
2,
5,
0,
5,
2,
5,
0,
1,
0,
1,
2,
1,
0,
1,
2,
1,
1,
0,
2,
0,
2,
1,
0,
1,
2,
1,
0,
0,
1,
0,
1,
0,
0,
1,
3,
0,
0,
0,
0,
0,
2,
1,
0,
0,
2,
0,
0,
0,
0,
0,
2,
0,
1,
0,
0,
0,
1,
0,
0,
0,
0,
0,
1,
0,
0,
0,
0,
0,
0,
0,
0,
0,
0,
0,
0,
0,
0,
0,
0,
0,
0,
0,
0,
0,
0,
0,
0,
0,
0,
0,
0,
0,
0,
0,
0,
0,
0,
0,
0,
0,
0,
0,
0,
0,
0,
0,
0,
0,
0,
0,
0,
0,
0,
0,
0,
0,
0,
0,
0,
0,
0,
0,
0,
0,
0,
0,
0,
0,
0,
0,
0,
0,
0,
0,
0,
0,
0,
0,
0,
0,
#ENDOFDATA   :