File: N132962/Quantification/20 keV/Glass Mount IIIB/GM IIIB K456[1][4].msa
#FORMAT      : EMSA/MAS Spectral Data File
#VERSION     : 1.0
#TITLE       : GM IIIB K456[1][all]
#DATE        : 10-SEP-2025
#TIME        : 14:53
#OWNER       : Unknown
#NPOINTS     : 4096
#NCOLUMNS    : 1
#XUNITS      : eV
#YUNITS      : counts
#DATATYPE    : Y
#XPERCHAN    : 9.99778
#OFFSET      : 1.69135
#BEAMKV      : 20
#SIGNALTYPE  : EDS
#ELEVANGLE   : 35
#AZIMANGLE   : 0
#LIVETIME    : 240.323
#REALTIME    : 267.498
#PROBECUR    : 1.22592
#TAUWIND     : 0
#TDEADLYR    : 0
#TACTLYR     : 0.045
#TALWIND     : 0.025
#CHOFFSET    : 0.0
#XLABEL      : Energy (eV)
#YLABEL      : Counts
#XPOSITION   : 15.50327
#YPOSITION   : 6.98859
#ZPOSITION   : 34.06144
#EDSDET      : SD
##SPECIMEN   : GM IIIB K456[1][all]
##D2STDCMP   : K456,(O:20.43),(Si:13.45),(Pb:66.12)
##DET_HASH   : 12273538-fd48-a23f-0a19-f1e6fa85caef
##CALIB_HASH : 6abaa72c-aa41-8738-0be9-f592914732f3
##WORKING    : 15.0 mm
##DET_NAME   : EDAX All
##DET_MODE   : MediumLE
#SPECTRUM    :
23,
544,
11637,
7436,
27793,
8344,
7152,
7585,
8415,
9555,
10484,
11370,
53018,
39974,
8963,
9381,
20160,
158004,
26474,
12913,
5474,
6091,
7591,
5741,
5463,
5587,
5329,
5439,
5188,
5379,
5303,
5104,
5505,
5097,
5200,
4831,
4840,
4699,
4650,
4528,
4476,
4370,
4307,
4172,
4123,
4128,
4282,
3807,
3760,
3691,
3664,
3636,
3415,
3615,
3331,
3222,
3128,
3040,
2935,
2963,
2915,
2773,
2626,
2629,
2648,
2887,
2878,
2343,
2349,
2198,
2202,
2208,
2133,
2013,
3150,
12162,
6587,
1833,
1775,
1736,
1639,
1668,
1562,
1418,
1359,
1393,
1435,
1460,
1414,
2059,
5446,
2293,
1258,
1260,
961,
888,
833,
811,
820,
757,
687,
742,
676,
630,
611,
882,
807,
557,
587,
514,
427,
445,
406,
392,
375,
343,
297,
309,
290,
277,
253,
242,
234,
198,
205,
208,
144,
157,
152,
155,
157,
108,
108,
88,
90,
77,
59,
51,
48,
37,
30,
19,
11,
5,
9,
6,
5,
3,
0,
3,
6,
5,
5,
4,
2,
1,
5,
2,
1,
1,
1,
0,
4,
2,
1,
2,
1,
0,
0,
0,
0,
1,
0,
2,
4,
3,
2,
0,
0,
0,
1,
2,
2,
0,
2,
0,
0,
2,
0,
0,
0,
1,
2,
0,
0,
1,
0,
0,
0,
0,
0,
0,
0,
0,
0,
0,
0,
0,
0,
0,
0,
0,
0,
0,
0,
0,
0,
0,
0,
0,
1,
0,
0,
1,
0,
0,
0,
0,
0,
0,
0,
0,
0,
0,
0,
0,
0,
0,
0,
0,
0,
0,
0,
0,
0,
0,
0,
0,
0,
0,
0,
0,
0,
0,
0,
0,
0,
0,
0,
0,
0,
0,
0,
0,
0,
0,
0,
0,
0,
0,
0,
0,
0,
0,
0,
0,
0,
0,
0,
0,
0,
0,
0,
0,
0,
0,
0,
0,
0,
0,
0,
0,
0,
0,
#ENDOFDATA   :