File: N132962/Quantification/20 keV/Glass Mount IIIB/GM IIIB K408[0][4].msa
#FORMAT      : EMSA/MAS Spectral Data File
#VERSION     : 1.0
#TITLE       : GM IIIB K408[0][all]
#DATE        : 10-SEP-2025
#TIME        : 14:34
#OWNER       : Unknown
#NPOINTS     : 4096
#NCOLUMNS    : 1
#XUNITS      : eV
#YUNITS      : counts
#DATATYPE    : Y
#XPERCHAN    : 9.99778
#OFFSET      : 1.69135
#BEAMKV      : 20
#SIGNALTYPE  : EDS
#ELEVANGLE   : 35
#AZIMANGLE   : 0
#LIVETIME    : 240.2031
#REALTIME    : 266.648
#PROBECUR    : 1.22574
#TAUWIND     : 0
#TDEADLYR    : 0
#TACTLYR     : 0.045
#TALWIND     : 0.025
#CHOFFSET    : 0.0
#XLABEL      : Energy (eV)
#YLABEL      : Counts
#XPOSITION   : 9.61465
#YPOSITION   : 4.76779
#ZPOSITION   : 34.06144
#EDSDET      : SD
##SPECIMEN   : GM IIIB K408[0][all]
##D2STDCMP   : K408,(O:21.32),(Si:14.02),(Eu:4.32),(Pb:60.34)
##DET_HASH   : 12273538-fd48-a23f-0a19-f1e6fa85caef
##CALIB_HASH : 6abaa72c-aa41-8738-0be9-f592914732f3
##WORKING    : 15.0 mm
##DET_NAME   : EDAX All
##DET_MODE   : MediumLE
#SPECTRUM    :
28,
525,
11781,
7448,
28869,
7947,
7635,
7788,
11806,
9017,
10117,
10966,
52748,
38452,
8509,
9024,
18854,
142192,
24436,
12485,
5417,
6004,
7529,
5607,
5204,
5561,
5173,
5262,
5046,
5147,
5290,
5031,
5408,
5058,
5016,
4798,
4709,
4744,
4493,
4411,
4488,
5121,
7254,
4006,
3954,
4118,
5975,
4225,
3710,
4140,
3582,
3356,
3303,
3640,
3380,
3135,
3124,
2945,
2769,
2802,
2713,
2646,
2579,
2478,
2490,
2725,
2738,
2287,
2265,
2175,
2119,
2000,
1926,
1990,
2956,
11140,
6107,
1779,
1668,
1567,
1597,
1520,
1534,
1350,
1393,
1350,
1332,
1392,
1333,
1930,
5046,
2197,
1177,
1202,
929,
841,
833,
816,
718,
748,
699,
665,
617,
655,
620,
864,
732,
505,
582,
490,
447,
440,
382,
394,
331,
351,
344,
284,
291,
239,
254,
237,
247,
203,
234,
182,
169,
158,
140,
142,
121,
95,
97,
85,
71,
70,
65,
60,
51,
40,
37,
16,
7,
11,
2,
5,
4,
3,
6,
0,
3,
3,
3,
3,
3,
2,
1,
1,
3,
1,
1,
3,
1,
2,
2,
2,
2,
1,
1,
1,
3,
0,
1,
2,
1,
1,
0,
1,
2,
2,
1,
0,
2,
1,
1,
0,
1,
1,
0,
0,
0,
0,
1,
1,
0,
0,
0,
0,
0,
3,
1,
1,
0,
1,
0,
1,
0,
0,
0,
0,
0,
0,
0,
0,
0,
0,
0,
0,
0,
0,
0,
0,
0,
0,
1,
1,
0,
0,
0,
0,
0,
0,
0,
0,
0,
0,
0,
0,
0,
0,
0,
0,
0,
0,
0,
0,
0,
0,
0,
0,
0,
0,
0,
0,
0,
0,
0,
0,
0,
0,
0,
0,
0,
0,
0,
0,
0,
0,
0,
0,
0,
0,
0,
0,
0,
0,
0,
0,
0,
0,
0,
0,
0,
0,
0,
0,
0,
0,
0,
0,
0,
0,
0,
0,
#ENDOFDATA   :