File: N132962/Quantification/20 keV/Glass Mount IIIB/GM IIIB K371[4][4].msa
#FORMAT      : EMSA/MAS Spectral Data File
#VERSION     : 1.0
#TITLE       : GM IIIB K371[4][all]
#DATE        : 10-SEP-2025
#TIME        : 14:45
#OWNER       : Unknown
#NPOINTS     : 4096
#NCOLUMNS    : 1
#XUNITS      : eV
#YUNITS      : counts
#DATATYPE    : Y
#XPERCHAN    : 9.99778
#OFFSET      : 1.69135
#BEAMKV      : 20
#SIGNALTYPE  : EDS
#ELEVANGLE   : 35
#AZIMANGLE   : 0
#LIVETIME    : 240.24
#REALTIME    : 261.996
#PROBECUR    : 1.22592
#TAUWIND     : 0
#TDEADLYR    : 0
#TACTLYR     : 0.045
#TALWIND     : 0.025
#CHOFFSET    : 0.0
#XLABEL      : Energy (eV)
#YLABEL      : Counts
#XPOSITION   : 11.55697
#YPOSITION   : 5.35166
#ZPOSITION   : 34.06144
#EDSDET      : SD
##SPECIMEN   : GM IIIB K371[4][all]
##D2STDCMP   : K371,(O:31.93),(Si:23.08),(Zn:3.07),(Ba:41.92)
##DET_HASH   : 12273538-fd48-a23f-0a19-f1e6fa85caef
##CALIB_HASH : 6abaa72c-aa41-8738-0be9-f592914732f3
##WORKING    : 15.0 mm
##DET_NAME   : EDAX All
##DET_MODE   : MediumLE
#SPECTRUM    :
20,
331,
8661,
10981,
72989,
6017,
5871,
12018,
5070,
5071,
5755,
6824,
58802,
29259,
4678,
4836,
5485,
5204,
5048,
5301,
5112,
4923,
5023,
4798,
4666,
4708,
4421,
4354,
6136,
4402,
4041,
8116,
69704,
4756,
16551,
22003,
5672,
13695,
3345,
4635,
4733,
3737,
3300,
2668,
2448,
2380,
2418,
2248,
2126,
2130,
2097,
1976,
2003,
2069,
1916,
1787,
1658,
1722,
1653,
1650,
1637,
2781,
3747,
1587,
1455,
1398,
1426,
1328,
1556,
1400,
1166,
1222,
1164,
1048,
1045,
992,
1010,
909,
936,
873,
824,
888,
816,
752,
720,
725,
680,
664,
685,
610,
632,
556,
556,
513,
494,
529,
450,
448,
413,
404,
350,
389,
332,
339,
288,
279,
296,
279,
282,
257,
224,
195,
204,
208,
168,
172,
149,
157,
151,
170,
132,
124,
114,
92,
95,
84,
83,
73,
77,
63,
54,
50,
47,
45,
39,
37,
20,
26,
23,
15,
13,
5,
1,
1,
3,
2,
3,
0,
2,
1,
2,
2,
1,
1,
0,
1,
0,
0,
0,
0,
0,
1,
0,
1,
1,
0,
0,
0,
1,
1,
0,
0,
1,
1,
0,
0,
1,
0,
0,
1,
0,
0,
0,
0,
0,
0,
0,
0,
0,
0,
0,
0,
0,
0,
0,
0,
0,
0,
0,
0,
0,
0,
0,
0,
1,
0,
0,
0,
2,
0,
0,
0,
0,
0,
0,
0,
0,
0,
0,
0,
0,
0,
0,
0,
0,
0,
0,
0,
0,
0,
0,
0,
0,
0,
0,
0,
0,
0,
0,
0,
0,
0,
0,
0,
0,
0,
0,
0,
0,
0,
0,
0,
0,
0,
0,
0,
0,
0,
0,
0,
0,
0,
0,
0,
0,
0,
0,
0,
0,
0,
0,
0,
0,
0,
0,
0,
0,
0,
0,
0,
0,
0,
0,
0,
0,
0,
0,
0,
0,
0,
0,
0,
0,
0,
#ENDOFDATA   :