File: N132962/Quantification/20 keV/Glass Mount IIIB/NIST K373 std.msa
#FORMAT      : EMSA/MAS Spectral Data File
#VERSION     : 1.0
#TITLE       : 'NIST K373' standard for 'N132962' detector
#NPOINTS     : 4096
#NCOLUMNS    : 1
#XUNITS      : eV
#YUNITS      : counts
#DATATYPE    : Y
#SIGNALTYPE  : EDS
#XLABEL      : Energy (eV)
#YLABEL      : Counts
#XPERCHAN -eV: 9.99778
#OFFSET   -eV: 1.69135
#CHOFFSET    : 0
#OWNER       : Unknown
#ELEVANGLE   : 35
#BEAMKV   -kV: 20
#LIVETIME  -s: 960.399
#REALTIME  -s: 1040.193
#PROBECUR -nA: 1.22475
##WORKING -mm: 15
##D2STDCMP   : NIST K373,(O:42.3397),(Na:10.4304),(Si:31.8484),(Zn:4.9407),(Ba:10.3803),(U:0.0534)
##SIMILAR    : 1.4
#SPECTRUM    :
70,
969,
22990,
40506,
329572,
14497,
17755,
100932,
25081,
16683,
19247,
25394,
362622,
168361,
12495,
12730,
17261,
13438,
13104,
13429,
13971,
12638,
12596,
12324,
12311,
13724,
11198,
10948,
12007,
10358,
9927,
13912,
71098,
9829,
20377,
25692,
10129,
17543,
7882,
9097,
8849,
7670,
7229,
6233,
6268,
6010,
6130,
5520,
5425,
5164,
5044,
4745,
4776,
4768,
4426,
4304,
4042,
3983,
3961,
3782,
3764,
11536,
16840,
3549,
3169,
3103,
2987,
3039,
4796,
3858,
2593,
2518,
2537,
2385,
2378,
2185,
2196,
2062,
1978,
1893,
1828,
1813,
1692,
1656,
1553,
1539,
1475,
1397,
1313,
1288,
1227,
1193,
1135,
1023,
1026,
1012,
929,
861,
847,
738,
830,
701,
665,
615,
582,
564,
543,
576,
510,
464,
436,
424,
404,
356,
356,
299,
311,
285,
273,
238,
228,
216,
229,
167,
178,
167,
146,
118,
115,
99,
85,
99,
63,
73,
65,
42,
44,
39,
29,
16,
32,
9,
10,
4,
5,
0,
1,
0,
0,
1,
1,
3,
0,
0,
2,
3,
3,
1,
0,
0,
1,
1,
1,
0,
2,
0,
0,
0,
0,
1,
0,
0,
0,
0,
0,
2,
0,
0,
0,
0,
0,
0,
0,
0,
0,
1,
0,
0,
0,
0,
0,
1,
1,
0,
0,
0,
0,
0,
0,
0,
0,
0,
1,
0,
0,
0,
0,
0,
0,
0,
0,
0,
0,
0,
0,
0,
0,
0,
0,
0,
0,
0,
0,
0,
0,
0,
0,
0,
0,
0,
0,
0,
0,
0,
0,
0,
0,
0,
0,
0,
0,
0,
0,
0,
0,
0,
0,
0,
0,
0,
0,
0,
0,
0,
0,
0,
0,
0,
0,
0,
0,
0,
0,
0,
0,
0,
0,
0,
0,
0,
0,
0,
0,
0,
0,
0,
0,
0,
0,
0,
0,
0,
0,
0,
0,
0,
0,
0,
0,
0,
0,
0,
0,
0,
#ENDOFDATA   :