File: N132962/Quantification/20 keV/Glass Mount IIIB/NIST K453 std.msa
#FORMAT      : EMSA/MAS Spectral Data File
#VERSION     : 1.0
#TITLE       : 'NIST K453' standard for 'N132962' detector
#NPOINTS     : 4096
#NCOLUMNS    : 1
#XUNITS      : eV
#YUNITS      : counts
#DATATYPE    : Y
#SIGNALTYPE  : EDS
#XLABEL      : Energy (eV)
#YLABEL      : Counts
#XPERCHAN -eV: 9.99778
#OFFSET   -eV: 1.69135
#CHOFFSET    : 0
#OWNER       : Unknown
#ELEVANGLE   : 35
#BEAMKV   -kV: 20
#LIVETIME  -s: 960.829
#REALTIME  -s: 1066.61
#PROBECUR -nA: 1.22574
##WORKING -mm: 15
##D2STDCMP   : NIST K453,(O:16.8392),(Ge:28.6501),(Pb:54.5107)
##SIMILAR    : 1.0
#SPECTRUM    :
99,
2223,
46789,
29632,
100118,
34860,
32828,
42474,
110654,
159315,
30448,
32383,
35603,
67493,
35003,
36510,
70839,
512773,
91189,
49887,
23715,
26424,
31628,
24214,
23159,
24055,
23529,
22898,
21987,
22093,
21903,
21510,
23645,
21609,
21546,
20871,
20257,
19715,
19308,
19058,
18530,
18212,
18044,
17445,
17138,
17130,
17983,
16149,
15709,
15310,
14982,
14707,
14253,
14584,
13712,
13182,
12771,
12589,
12413,
12039,
11714,
11341,
11221,
10721,
10524,
11326,
11844,
9675,
9711,
10511,
58755,
58265,
9632,
8640,
12212,
42896,
23930,
8210,
15742,
12602,
6656,
6432,
6235,
5900,
5701,
5517,
5532,
5940,
5672,
7490,
18665,
8298,
4839,
4960,
3983,
3726,
3597,
3376,
3324,
3097,
2964,
2831,
2759,
2620,
2681,
3317,
2942,
2285,
2390,
2227,
1837,
1777,
1687,
1582,
1495,
1516,
1416,
1278,
1240,
1155,
1041,
1009,
965,
889,
869,
827,
699,
644,
643,
588,
518,
476,
415,
337,
331,
269,
243,
199,
172,
166,
115,
92,
49,
21,
17,
26,
33,
23,
22,
24,
17,
25,
17,
15,
15,
10,
12,
6,
12,
9,
13,
17,
5,
9,
10,
7,
10,
9,
9,
5,
3,
12,
8,
6,
6,
8,
5,
9,
1,
5,
6,
5,
3,
6,
5,
8,
3,
4,
1,
2,
3,
4,
3,
1,
5,
4,
2,
1,
1,
0,
2,
3,
2,
1,
0,
2,
0,
3,
1,
1,
1,
2,
0,
0,
1,
1,
0,
0,
0,
0,
0,
1,
0,
0,
0,
0,
1,
0,
0,
1,
0,
0,
1,
0,
0,
0,
0,
0,
0,
0,
0,
0,
0,
0,
0,
0,
0,
0,
0,
0,
0,
0,
0,
0,
0,
0,
0,
0,
0,
0,
0,
0,
0,
0,
0,
0,
0,
0,
0,
0,
0,
0,
0,
0,
0,
0,
0,
0,
0,
0,
0,
0,
0,
0,
0,
0,
0,
0,
0,
0,
0,
0,
0,
0,
#ENDOFDATA   :