File: N132962/Quantification/20 keV/Glass Mount IIIB/NIST K919 std.msa
#FORMAT      : EMSA/MAS Spectral Data File
#VERSION     : 1.0
#TITLE       : 'NIST K919' standard for 'N132962' detector
#NPOINTS     : 4096
#NCOLUMNS    : 1
#XUNITS      : eV
#YUNITS      : counts
#DATATYPE    : Y
#SIGNALTYPE  : EDS
#XLABEL      : Energy (eV)
#YLABEL      : Counts
#XPERCHAN -eV: 9.99778
#OFFSET   -eV: 1.69135
#CHOFFSET    : 0
#OWNER       : Unknown
#ELEVANGLE   : 35
#BEAMKV   -kV: 20
#LIVETIME  -s: 1199.63
#REALTIME  -s: 1306.64
#PROBECUR -nA: 1.22377
##WORKING -mm: 15
##D2STDCMP   : NIST K919,(O:31.8587),(Si:20.1010),(Cr:0.6842),(Mn:1.8958),(Fe:2.0983),(Co:2.1318),(Ni:2.3575),(Cu:2.3965),(Ba:34.0339),(Ce:2.4422)
##SIMILAR    : 1.0
#SPECTRUM    :
125,
1683,
40626,
55529,
365098,
52579,
52750,
38094,
23398,
24403,
27248,
31773,
260981,
132879,
23600,
24213,
27231,
25156,
25061,
25761,
25137,
24798,
24933,
23445,
22838,
23005,
22607,
21168,
27924,
22096,
20280,
37567,
287639,
22438,
74852,
101774,
25742,
60714,
23985,
29419,
24686,
18710,
39748,
16366,
12190,
17789,
31937,
12246,
10654,
21780,
20550,
10995,
9902,
23173,
16584,
10567,
8812,
17986,
14903,
10425,
7956,
7352,
7367,
7964,
7928,
6683,
6477,
6375,
6145,
5918,
5814,
5615,
5549,
5322,
5077,
4965,
4808,
4705,
4547,
4364,
4183,
4053,
4014,
3770,
3572,
3503,
3410,
3162,
3246,
2982,
2914,
2793,
2689,
2521,
2359,
2272,
2218,
2144,
2022,
1955,
1825,
1762,
1701,
1557,
1551,
1442,
1433,
1282,
1245,
1140,
1083,
1040,
963,
922,
921,
878,
794,
743,
666,
684,
610,
546,
518,
483,
432,
413,
392,
374,
314,
289,
270,
237,
203,
192,
181,
163,
142,
119,
83,
64,
50,
23,
13,
16,
9,
8,
7,
6,
7,
7,
7,
3,
6,
4,
4,
6,
5,
1,
2,
4,
1,
2,
5,
0,
4,
3,
3,
1,
4,
0,
0,
1,
0,
1,
1,
1,
2,
2,
1,
2,
0,
1,
3,
2,
1,
0,
3,
0,
1,
0,
0,
2,
3,
0,
0,
2,
0,
0,
0,
1,
0,
2,
0,
0,
0,
0,
0,
0,
1,
0,
1,
0,
0,
0,
0,
0,
0,
0,
0,
0,
0,
0,
0,
0,
0,
0,
0,
0,
0,
0,
0,
0,
0,
0,
0,
0,
0,
0,
0,
1,
0,
0,
0,
0,
0,
0,
0,
0,
0,
0,
0,
0,
0,
0,
0,
0,
0,
0,
0,
0,
0,
0,
0,
0,
0,
0,
0,
0,
0,
0,
0,
0,
0,
0,
0,
0,
0,
0,
0,
0,
0,
0,
0,
0,
0,
0,
0,
0,
0,
0,
0,
0,
0,
0,
#ENDOFDATA   :