File: N132962/Quantification/20 keV/Glass Mount IIIB/NIST K412 std.msa
#FORMAT      : EMSA/MAS Spectral Data File
#VERSION     : 1.0
#TITLE       : 'NIST K412' standard for 'N132962' detector
#NPOINTS     : 4096
#NCOLUMNS    : 1
#XUNITS      : eV
#YUNITS      : counts
#DATATYPE    : Y
#SIGNALTYPE  : EDS
#XLABEL      : Energy (eV)
#YLABEL      : Counts
#XPERCHAN -eV: 9.99778
#OFFSET   -eV: 1.69135
#CHOFFSET    : 0
#OWNER       : Unknown
#ELEVANGLE   : 35
#BEAMKV   -kV: 20
#LIVETIME  -s: 960.651
#REALTIME  -s: 1033.78
#PROBECUR -nA: 1.22574
##WORKING -mm: 15
##D2STDCMP   : NIST K412,(O:42.7559),(Mg:11.6575),(Al:4.9059),(Si:21.1996),(Ca:10.8991),(Fe:7.7420)
##SIMILAR    : 2.0
#SPECTRUM    :
84,
826,
29833,
27093,
223624,
38752,
12566,
15566,
20608,
407284,
28130,
72964,
231655,
111147,
15087,
12261,
14879,
12856,
12685,
12660,
12227,
12246,
11831,
11534,
10966,
12655,
135298,
49505,
14637,
27417,
8646,
8087,
8424,
7767,
7128,
7264,
6946,
6801,
6457,
6680,
5830,
5794,
6252,
5548,
5570,
21267,
55351,
5332,
4617,
4765,
10303,
7114,
4008,
4025,
3895,
3591,
3494,
3407,
3329,
3206,
3109,
2914,
2838,
2742,
2646,
2481,
2478,
2419,
2411,
2395,
2210,
2057,
2141,
1927,
1869,
1834,
1796,
1648,
1542,
1561,
1528,
1377,
1409,
1329,
1305,
1197,
1230,
1160,
1100,
1021,
1002,
973,
853,
861,
805,
853,
740,
665,
681,
621,
616,
593,
555,
536,
469,
477,
424,
398,
349,
368,
325,
301,
313,
282,
219,
244,
222,
203,
187,
204,
161,
165,
157,
152,
157,
117,
100,
105,
76,
75,
84,
72,
73,
53,
39,
39,
21,
31,
24,
22,
16,
6,
3,
0,
1,
1,
0,
1,
1,
0,
0,
0,
2,
2,
1,
1,
0,
0,
0,
1,
0,
0,
0,
0,
1,
1,
0,
0,
0,
0,
0,
0,
0,
0,
0,
0,
0,
0,
1,
0,
0,
0,
0,
0,
0,
0,
0,
0,
0,
0,
0,
0,
0,
0,
1,
0,
0,
0,
0,
0,
0,
0,
0,
0,
0,
0,
0,
0,
0,
0,
0,
0,
0,
0,
0,
0,
0,
0,
0,
0,
0,
0,
0,
0,
0,
0,
0,
0,
0,
0,
0,
0,
0,
0,
0,
0,
0,
0,
0,
0,
0,
0,
0,
0,
0,
0,
0,
0,
0,
0,
0,
0,
0,
0,
0,
0,
0,
0,
0,
0,
0,
0,
0,
0,
0,
0,
0,
0,
0,
0,
0,
0,
0,
0,
0,
0,
0,
0,
0,
0,
0,
0,
0,
0,
0,
0,
0,
0,
0,
0,
0,
0,
0,
0,
#ENDOFDATA   :