File: N132962/Quantification/20 keV/Glass Mount IIIB/NIST K493 std.msa
#FORMAT      : EMSA/MAS Spectral Data File
#VERSION     : 1.0
#TITLE       : 'NIST K493' standard for 'N132962' detector
#NPOINTS     : 4096
#NCOLUMNS    : 1
#XUNITS      : eV
#YUNITS      : counts
#DATATYPE    : Y
#SIGNALTYPE  : EDS
#XLABEL      : Energy (eV)
#YLABEL      : Counts
#XPERCHAN -eV: 9.99778
#OFFSET   -eV: 1.69135
#CHOFFSET    : 0
#OWNER       : Unknown
#ELEVANGLE   : 35
#BEAMKV   -kV: 20
#LIVETIME  -s: 1201.9
#REALTIME  -s: 1337.42
#PROBECUR -nA: 1.22616
##WORKING -mm: 15
##D2STDCMP   : NIST K493,(Li:0.0005),(B:0.0435),(O:20.6329),(Al:0.1058),(Si:13.0376),(Ti:0.1918),(Fe:0.2238),(Zr:0.3627),(Ce:0.5536),(Ta:0.7207),(Pb:64.1280)
##SIMILAR    : 1.0
#SPECTRUM    :
116,
2770,
59468,
37716,
140466,
42642,
36177,
38692,
42352,
47307,
51790,
58444,
266527,
197271,
46905,
51265,
99565,
765155,
128415,
63683,
27725,
30888,
38037,
28809,
26990,
27913,
26830,
26895,
25628,
26825,
26503,
25500,
31165,
25784,
26766,
27445,
23946,
23796,
23844,
22350,
22952,
21823,
21469,
21075,
20467,
20928,
23512,
19032,
18721,
18215,
18384,
17691,
16892,
17768,
16891,
16137,
15476,
15061,
16552,
14911,
14056,
13710,
13681,
13146,
12687,
14293,
14545,
12516,
11922,
11729,
10828,
10706,
10199,
10339,
15353,
59131,
32082,
9548,
8747,
8330,
8336,
8127,
7736,
7321,
6919,
6689,
6911,
7476,
6967,
9958,
26555,
11426,
6243,
6047,
4899,
4548,
4320,
4096,
4108,
3829,
3655,
3556,
3434,
3228,
3123,
4377,
3824,
2869,
2943,
2691,
2270,
2155,
1997,
1981,
1823,
1716,
1717,
1500,
1438,
1398,
1275,
1197,
1241,
1087,
1008,
965,
880,
894,
762,
662,
611,
558,
498,
446,
435,
377,
325,
284,
244,
181,
133,
99,
60,
30,
19,
24,
24,
10,
15,
21,
27,
19,
18,
19,
13,
14,
11,
8,
10,
11,
7,
13,
5,
9,
6,
10,
14,
7,
10,
6,
4,
7,
4,
3,
7,
9,
10,
5,
7,
3,
2,
2,
6,
7,
3,
4,
3,
5,
5,
4,
4,
1,
3,
2,
4,
4,
2,
2,
2,
1,
3,
2,
1,
2,
2,
2,
1,
1,
1,
3,
2,
3,
2,
0,
0,
1,
2,
0,
0,
1,
1,
0,
0,
0,
0,
1,
0,
0,
0,
0,
0,
0,
0,
0,
1,
0,
0,
0,
0,
0,
0,
0,
0,
0,
0,
0,
0,
0,
0,
0,
0,
0,
0,
0,
1,
0,
0,
0,
0,
0,
0,
0,
0,
0,
0,
0,
0,
0,
0,
0,
0,
0,
0,
0,
0,
0,
0,
0,
0,
0,
0,
0,
0,
0,
0,
0,
0,
0,
0,
0,
0,
0,
0,
0,
#ENDOFDATA   :