File: N132962/Quantification/20 keV/Glass Mount IIIB/NIST K252 std.msa
#FORMAT      : EMSA/MAS Spectral Data File
#VERSION     : 1.0
#TITLE       : 'NIST K252' standard for 'N132962' detector
#NPOINTS     : 4096
#NCOLUMNS    : 1
#XUNITS      : eV
#YUNITS      : counts
#DATATYPE    : Y
#SIGNALTYPE  : EDS
#XLABEL      : Energy (eV)
#YLABEL      : Counts
#XPERCHAN -eV: 9.99778
#OFFSET   -eV: 1.69135
#CHOFFSET    : 0
#OWNER       : Unknown
#ELEVANGLE   : 35
#BEAMKV   -kV: 20
#LIVETIME  -s: 1201.07
#REALTIME  -s: 1307.33
#PROBECUR -nA: 1.2221
##WORKING -mm: 15
##D2STDCMP   : NIST K252,(O:30.8345),(Si:18.6986),(Mn:3.1597),(Co:3.9323),(Cu:3.9942),(Zn:8.0337),(Ba:31.3470)
##SIMILAR    : 1.2
#SPECTRUM    :
142,
1681,
40049,
53043,
345452,
36129,
38591,
116191,
24942,
23073,
26334,
32071,
241284,
122401,
23347,
24064,
26938,
25188,
25163,
26101,
25466,
24571,
24792,
23523,
23134,
22855,
22194,
21467,
27929,
21586,
20245,
36226,
273354,
22017,
66140,
88847,
25305,
55832,
15712,
21525,
21812,
18625,
55958,
16222,
12030,
12159,
16554,
12715,
10919,
29177,
24489,
9921,
9766,
9962,
11252,
12046,
8991,
24384,
18827,
8141,
8059,
25000,
37305,
9506,
9111,
6732,
6594,
6631,
10577,
8186,
5830,
5562,
5510,
5280,
5119,
5046,
4749,
4599,
4433,
4431,
4188,
3953,
3852,
3804,
3564,
3518,
3394,
3355,
3141,
2919,
2781,
2720,
2657,
2558,
2397,
2377,
2137,
2157,
1973,
1907,
1825,
1721,
1542,
1587,
1521,
1449,
1298,
1345,
1204,
1185,
1116,
1058,
971,
930,
876,
840,
736,
698,
639,
622,
591,
563,
546,
487,
439,
423,
384,
383,
306,
301,
264,
240,
213,
171,
161,
136,
127,
93,
92,
77,
67,
36,
17,
9,
10,
7,
6,
9,
3,
6,
4,
6,
9,
2,
4,
1,
4,
1,
3,
3,
4,
4,
2,
2,
4,
4,
3,
3,
2,
0,
1,
2,
1,
2,
0,
0,
1,
1,
0,
0,
1,
0,
2,
0,
0,
1,
2,
1,
1,
0,
1,
0,
0,
0,
0,
1,
0,
1,
1,
0,
0,
0,
0,
0,
0,
0,
0,
1,
1,
0,
0,
0,
1,
0,
0,
0,
0,
0,
0,
0,
0,
0,
0,
0,
0,
0,
0,
0,
0,
0,
0,
0,
0,
0,
0,
0,
0,
0,
0,
0,
0,
0,
0,
0,
0,
0,
0,
0,
0,
0,
0,
0,
0,
0,
0,
0,
0,
0,
0,
0,
0,
0,
0,
0,
0,
0,
0,
0,
0,
0,
0,
0,
0,
0,
0,
0,
0,
0,
0,
0,
0,
0,
0,
0,
0,
0,
0,
0,
0,
0,
0,
0,
0,
0,
#ENDOFDATA   :