File: N132962/Quantification/20 keV/Glass Mount IIIB/NIST K1132 std.msa
#FORMAT      : EMSA/MAS Spectral Data File
#VERSION     : 1.0
#TITLE       : 'NIST K1132' standard for 'N132962' detector
#NPOINTS     : 4096
#NCOLUMNS    : 1
#XUNITS      : eV
#YUNITS      : counts
#DATATYPE    : Y
#SIGNALTYPE  : EDS
#XLABEL      : Energy (eV)
#YLABEL      : Counts
#XPERCHAN -eV: 9.99778
#OFFSET   -eV: 1.69135
#CHOFFSET    : 0
#OWNER       : Unknown
#ELEVANGLE   : 35
#BEAMKV   -kV: 20
#LIVETIME  -s: 1200.63
#REALTIME  -s: 1293.91
#PROBECUR -nA: 1.22427
##WORKING -mm: 15
##D2STDCMP   : NIST K1132,(Li:2.3226),(O:41.3394),(Al:7.9384),(Si:21.3865),(Ca:10.7204),(Cr:0.5132),(Ni:1.1788),(Mo:1.6663),(Ba:13.4344)
##SIMILAR    : 1.1
#SPECTRUM    :
110,
1203,
39367,
35686,
277587,
17439,
31031,
23781,
22221,
25232,
48860,
143138,
291447,
141486,
22352,
19032,
31661,
30608,
20556,
18987,
18348,
17899,
17390,
17779,
16325,
18361,
171522,
64158,
24174,
37581,
13568,
18736,
108184,
13120,
29494,
38047,
13986,
25383,
12281,
17471,
12359,
10616,
10079,
8889,
8073,
8014,
8028,
7474,
7270,
6936,
6754,
6638,
6457,
12838,
8940,
5770,
5645,
5555,
5344,
6332,
5025,
4884,
4659,
4551,
4480,
4247,
4006,
3933,
3909,
3784,
3662,
3580,
3470,
3288,
3246,
2996,
2919,
2749,
2826,
2692,
2609,
2462,
2451,
2256,
2071,
2093,
2003,
1950,
1854,
1784,
1672,
1675,
1612,
1491,
1354,
1382,
1284,
1185,
1191,
1141,
1104,
972,
966,
876,
841,
790,
782,
742,
713,
665,
625,
546,
581,
572,
435,
447,
440,
383,
411,
335,
304,
316,
296,
273,
252,
235,
215,
189,
168,
149,
153,
149,
102,
106,
80,
75,
63,
64,
38,
33,
20,
21,
9,
4,
6,
3,
3,
1,
3,
4,
1,
0,
1,
0,
0,
1,
2,
1,
0,
0,
1,
0,
0,
0,
0,
0,
2,
0,
0,
0,
0,
0,
0,
0,
2,
0,
0,
0,
1,
0,
0,
0,
0,
1,
0,
0,
1,
0,
0,
0,
0,
0,
0,
0,
0,
0,
0,
0,
0,
1,
1,
0,
0,
0,
0,
0,
0,
0,
0,
0,
0,
0,
0,
0,
0,
0,
0,
0,
0,
1,
0,
0,
0,
0,
0,
0,
0,
0,
0,
0,
0,
0,
0,
0,
0,
0,
0,
0,
0,
0,
0,
0,
0,
0,
0,
0,
0,
0,
0,
0,
0,
0,
0,
0,
0,
0,
0,
0,
0,
0,
0,
0,
0,
0,
0,
0,
0,
0,
0,
0,
0,
0,
0,
0,
0,
0,
0,
0,
0,
0,
0,
0,
0,
0,
0,
0,
0,
0,
0,
0,
0,
0,
0,
0,
#ENDOFDATA   :