File: N132962/Quantification/20 keV/Glass Mount IIIB/NIST K371 std.msa
#FORMAT      : EMSA/MAS Spectral Data File
#VERSION     : 1.0
#TITLE       : 'NIST K371' standard for 'N132962' detector
#NPOINTS     : 4096
#NCOLUMNS    : 1
#XUNITS      : eV
#YUNITS      : counts
#DATATYPE    : Y
#SIGNALTYPE  : EDS
#XLABEL      : Energy (eV)
#YLABEL      : Counts
#XPERCHAN -eV: 9.99778
#OFFSET   -eV: 1.69135
#CHOFFSET    : 0
#OWNER       : Unknown
#ELEVANGLE   : 35
#BEAMKV   -kV: 20
#LIVETIME  -s: 961.0091
#REALTIME  -s: 1047.98
#PROBECUR -nA: 1.22592
##WORKING -mm: 15
##D2STDCMP   : NIST K371,(O:31.9322),(Si:23.0834),(Zn:3.0689),(Ba:41.9155)
##SIMILAR    : 1.2
#SPECTRUM    :
103,
1387,
35304,
43492,
291027,
23771,
23312,
47542,
20127,
20044,
22577,
27159,
235935,
117067,
18714,
19356,
22235,
20534,
20005,
21157,
20232,
19818,
19973,
18804,
18618,
18948,
17694,
17614,
24185,
17935,
16530,
32944,
279435,
18728,
65406,
88387,
22455,
54229,
13085,
18799,
19022,
14882,
13163,
10504,
9817,
9543,
9875,
9028,
8508,
8475,
8332,
7930,
7847,
8089,
7664,
7217,
7040,
6844,
6636,
6669,
6512,
11195,
15050,
6121,
5830,
5577,
5498,
5234,
6484,
5670,
4838,
4725,
4598,
4319,
4357,
4050,
4107,
3755,
3689,
3617,
3419,
3398,
3226,
3150,
3008,
2873,
2795,
2682,
2633,
2494,
2437,
2273,
2200,
2201,
2043,
1990,
1833,
1715,
1662,
1655,
1473,
1483,
1431,
1355,
1222,
1221,
1111,
1047,
1061,
988,
962,
881,
784,
780,
702,
708,
620,
604,
555,
531,
504,
454,
439,
429,
365,
326,
319,
295,
269,
259,
227,
205,
178,
166,
156,
115,
108,
100,
66,
59,
40,
31,
10,
5,
12,
8,
7,
5,
10,
1,
3,
4,
4,
4,
2,
2,
4,
5,
0,
6,
4,
3,
2,
1,
2,
1,
0,
2,
1,
2,
0,
2,
2,
2,
1,
1,
2,
1,
0,
2,
0,
1,
0,
0,
0,
0,
1,
0,
0,
0,
0,
0,
0,
0,
0,
2,
1,
0,
0,
0,
0,
0,
0,
0,
2,
0,
0,
0,
2,
0,
0,
0,
0,
0,
0,
0,
0,
0,
0,
0,
0,
0,
0,
0,
0,
0,
0,
0,
0,
0,
0,
0,
0,
0,
0,
0,
0,
0,
0,
0,
0,
0,
0,
0,
0,
0,
0,
0,
0,
0,
0,
0,
0,
0,
0,
0,
0,
0,
0,
0,
0,
0,
0,
0,
0,
0,
0,
0,
0,
0,
0,
0,
0,
0,
0,
0,
0,
0,
0,
0,
0,
0,
0,
0,
0,
0,
0,
0,
0,
0,
0,
0,
0,
0,
#ENDOFDATA   :