File: N132962/Quantification/20 keV/Glass Mount IIIB/NIST K456 std.msa
#FORMAT      : EMSA/MAS Spectral Data File
#VERSION     : 1.0
#TITLE       : 'NIST K456' standard for 'N132962' detector
#NPOINTS     : 4096
#NCOLUMNS    : 1
#XUNITS      : eV
#YUNITS      : counts
#DATATYPE    : Y
#SIGNALTYPE  : EDS
#XLABEL      : Energy (eV)
#YLABEL      : Counts
#XPERCHAN -eV: 9.99778
#OFFSET   -eV: 1.69135
#CHOFFSET    : 0
#OWNER       : Unknown
#ELEVANGLE   : 35
#BEAMKV   -kV: 20
#LIVETIME  -s: 1201.24
#REALTIME  -s: 1337.05
#PROBECUR -nA: 1.22592
##WORKING -mm: 15
##D2STDCMP   : NIST K456,(O:20.4271),(Si:13.4490),(Pb:66.1239)
##SIMILAR    : 1.0
#SPECTRUM    :
101,
2711,
58823,
37005,
138653,
41352,
35586,
38553,
42226,
47398,
52025,
57168,
263038,
199676,
45283,
47301,
101264,
792808,
131282,
63562,
27545,
30533,
38325,
28573,
26453,
27856,
26553,
26821,
25865,
26747,
26640,
25128,
27407,
25093,
25604,
24614,
23549,
23409,
23023,
22493,
21966,
21720,
21370,
20833,
20530,
20498,
21439,
19052,
18654,
18401,
18137,
17698,
17085,
17981,
16700,
15979,
15566,
15127,
14922,
14512,
14148,
13591,
13475,
13234,
12845,
14335,
14383,
11912,
11478,
11389,
11114,
10678,
10535,
10331,
15842,
60345,
33119,
9621,
8738,
8459,
8287,
8217,
7809,
7336,
7150,
6854,
7034,
7315,
7014,
10066,
27341,
11685,
6302,
6409,
4781,
4424,
4302,
4194,
3958,
3795,
3671,
3595,
3494,
3325,
3212,
4491,
3840,
2888,
2961,
2649,
2279,
2213,
2051,
1959,
1914,
1749,
1595,
1578,
1416,
1376,
1339,
1182,
1179,
1096,
990,
958,
797,
795,
797,
707,
613,
577,
541,
447,
420,
379,
338,
287,
239,
166,
137,
116,
61,
20,
26,
26,
17,
20,
15,
18,
28,
24,
19,
18,
16,
12,
15,
11,
16,
10,
8,
7,
8,
10,
8,
9,
13,
4,
2,
5,
5,
5,
3,
10,
9,
14,
7,
2,
6,
7,
3,
7,
7,
2,
4,
3,
4,
3,
1,
4,
2,
4,
4,
5,
2,
5,
1,
3,
0,
2,
0,
2,
1,
2,
1,
1,
1,
1,
3,
1,
0,
0,
0,
2,
0,
0,
1,
0,
0,
0,
2,
0,
0,
1,
0,
0,
1,
0,
0,
0,
0,
0,
1,
0,
0,
0,
0,
0,
1,
1,
0,
0,
0,
0,
0,
0,
1,
0,
0,
0,
0,
0,
0,
0,
0,
0,
0,
0,
0,
0,
0,
0,
0,
0,
0,
0,
0,
0,
0,
0,
0,
0,
0,
0,
0,
0,
0,
0,
0,
0,
0,
0,
0,
0,
0,
0,
0,
0,
0,
0,
0,
0,
0,
0,
#ENDOFDATA   :