File: N132962/Quantification/20 keV/Glass Mount IIIB/NIST K240 std.msa
#FORMAT      : EMSA/MAS Spectral Data File
#VERSION     : 1.0
#TITLE       : 'NIST K240' standard for 'N132962' detector
#NPOINTS     : 4096
#NCOLUMNS    : 1
#XUNITS      : eV
#YUNITS      : counts
#DATATYPE    : Y
#SIGNALTYPE  : EDS
#XLABEL      : Energy (eV)
#YLABEL      : Counts
#XPERCHAN -eV: 9.99778
#OFFSET   -eV: 1.69135
#CHOFFSET    : 0
#OWNER       : Unknown
#ELEVANGLE   : 35
#BEAMKV   -kV: 20
#LIVETIME  -s: 1200.81
#REALTIME  -s: 1299.71
#PROBECUR -nA: 1.2221
##WORKING -mm: 15
##D2STDCMP   : NIST K240,(O:34.0023),(Mg:3.0154),(Si:18.6986),(Ti:5.9950),(Zn:4.0168),(Zr:7.4030),(Ba:26.8689)
##SIMILAR    : 1.1
#SPECTRUM    :
105,
1760,
39928,
57319,
265411,
22766,
26710,
66625,
26261,
113295,
27466,
32593,
259281,
134074,
39046,
90500,
31730,
23055,
23975,
23210,
23196,
21892,
22535,
21430,
21027,
20931,
20330,
19516,
24949,
19343,
18228,
32125,
326642,
30547,
55573,
87580,
23642,
45953,
14252,
18780,
18837,
15400,
13875,
11655,
11002,
10949,
11061,
10214,
9874,
9445,
9404,
8933,
8827,
9022,
8367,
8060,
8106,
7750,
7425,
7299,
7150,
15125,
20640,
6762,
6631,
6187,
5927,
5976,
7838,
6499,
5218,
5202,
4905,
4777,
4656,
4433,
4216,
4156,
4057,
3954,
3779,
3612,
3496,
3311,
3147,
3155,
3035,
2937,
2768,
2585,
2535,
2434,
2354,
2186,
2205,
2041,
1918,
1862,
1832,
1735,
1562,
1601,
1483,
1385,
1334,
1254,
1176,
1117,
1115,
985,
933,
950,
1247,
1083,
838,
732,
686,
649,
603,
550,
525,
500,
445,
408,
337,
374,
391,
291,
289,
240,
222,
189,
189,
182,
128,
116,
103,
75,
78,
48,
42,
35,
10,
5,
1,
6,
3,
4,
4,
4,
4,
5,
2,
3,
2,
2,
0,
3,
3,
3,
1,
1,
0,
0,
2,
2,
1,
1,
1,
2,
0,
1,
1,
2,
0,
1,
1,
0,
0,
0,
0,
0,
1,
0,
1,
2,
0,
1,
1,
0,
1,
0,
0,
0,
0,
2,
0,
0,
1,
0,
0,
0,
0,
0,
0,
0,
0,
1,
0,
0,
0,
0,
0,
0,
0,
0,
0,
0,
0,
1,
0,
0,
0,
0,
0,
0,
0,
0,
0,
0,
0,
0,
0,
0,
0,
0,
0,
0,
0,
0,
0,
0,
0,
0,
0,
0,
0,
0,
0,
0,
0,
0,
0,
0,
0,
0,
0,
0,
0,
0,
0,
0,
0,
0,
0,
0,
0,
0,
0,
0,
0,
0,
0,
0,
0,
0,
0,
0,
0,
0,
0,
0,
0,
0,
0,
0,
0,
0,
0,
0,
0,
0,
0,
0,
#ENDOFDATA   :