File: N132962/Quantification/20 keV/Glass Mount IIIB/NIST K411 std.msa
#FORMAT      : EMSA/MAS Spectral Data File
#VERSION     : 1.0
#TITLE       : 'NIST K411' standard for 'N132962' detector
#NPOINTS     : 4096
#NCOLUMNS    : 1
#XUNITS      : eV
#YUNITS      : counts
#DATATYPE    : Y
#SIGNALTYPE  : EDS
#XLABEL      : Energy (eV)
#YLABEL      : Counts
#XPERCHAN -eV: 9.99778
#OFFSET   -eV: 1.69135
#CHOFFSET    : 0
#OWNER       : Unknown
#ELEVANGLE   : 35
#BEAMKV   -kV: 20
#LIVETIME  -s: 1201.01
#REALTIME  -s: 1294.28
#PROBECUR -nA: 1.22574
##WORKING -mm: 15
##D2STDCMP   : NIST K411,(O:42.3643),(Mg:8.8471),(Si:25.3834),(Ca:11.0563),(Fe:11.2089)
##SIMILAR    : 1.1
#SPECTRUM    :
146,
1074,
35287,
34235,
282265,
60474,
15044,
18061,
23564,
374220,
23448,
28192,
368182,
173654,
19051,
16194,
19339,
16386,
16316,
16076,
15699,
16028,
15260,
14670,
14321,
17249,
172602,
63017,
19093,
35141,
11319,
10313,
10797,
10275,
9585,
9548,
9204,
8587,
8415,
8615,
7757,
7610,
8454,
7308,
7283,
35394,
97573,
7200,
6137,
6265,
16493,
10693,
5078,
5264,
5035,
4655,
4521,
4414,
4416,
4187,
4003,
3833,
3713,
3566,
3460,
3328,
3140,
3139,
3104,
2966,
2786,
2781,
2689,
2602,
2582,
2401,
2368,
2214,
2185,
2018,
1915,
1886,
1773,
1656,
1681,
1680,
1503,
1497,
1427,
1381,
1263,
1176,
1160,
1131,
1109,
1038,
1005,
956,
908,
828,
753,
770,
678,
700,
659,
524,
590,
550,
489,
521,
466,
404,
403,
405,
329,
319,
356,
290,
258,
271,
228,
175,
199,
184,
173,
164,
159,
112,
112,
116,
85,
89,
92,
80,
58,
49,
61,
33,
28,
19,
15,
11,
6,
3,
2,
3,
2,
1,
1,
3,
1,
1,
1,
1,
1,
0,
0,
0,
1,
0,
0,
0,
0,
0,
1,
0,
1,
0,
0,
2,
0,
0,
0,
0,
1,
0,
0,
1,
0,
0,
0,
0,
0,
0,
0,
0,
0,
0,
0,
0,
1,
0,
0,
0,
0,
1,
1,
0,
0,
0,
0,
0,
0,
0,
0,
0,
0,
0,
0,
0,
1,
0,
0,
0,
0,
0,
0,
0,
0,
0,
0,
0,
0,
0,
0,
0,
0,
0,
0,
0,
0,
0,
0,
0,
0,
0,
0,
0,
0,
0,
0,
0,
0,
0,
0,
0,
0,
0,
0,
0,
0,
0,
0,
0,
0,
0,
0,
0,
0,
0,
0,
0,
0,
0,
0,
0,
0,
0,
0,
0,
0,
0,
0,
0,
0,
0,
0,
0,
0,
0,
0,
0,
0,
0,
0,
0,
0,
0,
0,
0,
0,
0,
0,
0,
#ENDOFDATA   :