File: N132962/Quantification/20 keV/Glass Mount IIIB/NIST K251 std.msa
#FORMAT      : EMSA/MAS Spectral Data File
#VERSION     : 1.0
#TITLE       : 'NIST K251' standard for 'N132962' detector
#NPOINTS     : 4096
#NCOLUMNS    : 1
#XUNITS      : eV
#YUNITS      : counts
#DATATYPE    : Y
#SIGNALTYPE  : EDS
#XLABEL      : Energy (eV)
#YLABEL      : Counts
#XPERCHAN -eV: 9.99778
#OFFSET   -eV: 1.69135
#CHOFFSET    : 0
#OWNER       : Unknown
#ELEVANGLE   : 35
#BEAMKV   -kV: 20
#LIVETIME  -s: 1201.29
#REALTIME  -s: 1327.26
#PROBECUR -nA: 1.2221
##WORKING -mm: 15
##D2STDCMP   : NIST K251,(O:23.0219),(Al:1.3231),(Si:14.0240),(Ba:8.9563),(Ta:4.0948),(Pb:44.0950),(Bi:4.4850)
##SIMILAR    : 1.0
#SPECTRUM    :
112,
2521,
54151,
39550,
167653,
37720,
33807,
37177,
38216,
43207,
50724,
71400,
300282,
178963,
41426,
40055,
75276,
524591,
121769,
53881,
27966,
29477,
34882,
28573,
26372,
27001,
25683,
26047,
26952,
25805,
25479,
28357,
90460,
24903,
36564,
42003,
24476,
32645,
21419,
22741,
22705,
21075,
20183,
18958,
18459,
18641,
19224,
17314,
17029,
16557,
16239,
16358,
15524,
16067,
15230,
14331,
13903,
14403,
23604,
15256,
12755,
12337,
11963,
11958,
11579,
12391,
14239,
13988,
11379,
11990,
10070,
9478,
9208,
9122,
12431,
41571,
23543,
11129,
9833,
7641,
7383,
7235,
6740,
6395,
6385,
6088,
6271,
6240,
6144,
8059,
18943,
8741,
5846,
6256,
4428,
4096,
3850,
3583,
3547,
3468,
3262,
3080,
3073,
2870,
2813,
3517,
3112,
2476,
2482,
2372,
2071,
2002,
1860,
1757,
1655,
1576,
1450,
1350,
1333,
1204,
1162,
1125,
998,
970,
866,
798,
751,
694,
644,
634,
517,
462,
469,
405,
358,
275,
270,
210,
195,
143,
120,
79,
48,
32,
20,
14,
20,
20,
16,
12,
16,
6,
16,
12,
8,
10,
7,
10,
3,
6,
11,
9,
6,
5,
6,
6,
6,
3,
10,
2,
3,
9,
2,
3,
4,
0,
6,
5,
1,
7,
3,
4,
4,
5,
3,
7,
6,
1,
3,
2,
2,
2,
0,
4,
3,
2,
4,
1,
1,
0,
5,
3,
2,
3,
0,
1,
0,
0,
0,
0,
2,
2,
2,
1,
0,
0,
0,
1,
0,
0,
0,
0,
2,
0,
0,
2,
0,
0,
0,
1,
0,
0,
1,
0,
0,
0,
1,
1,
0,
1,
0,
0,
0,
1,
0,
2,
0,
0,
0,
0,
0,
0,
0,
0,
0,
0,
0,
0,
0,
0,
0,
0,
0,
0,
0,
0,
0,
0,
0,
0,
0,
0,
0,
0,
0,
0,
0,
0,
0,
0,
0,
0,
0,
0,
0,
0,
0,
0,
0,
0,
0,
0,
0,
0,
#ENDOFDATA   :