File: N132962/Quantification/20 keV/Glass Mount IIIB/NIST K229 std.msa
#FORMAT      : EMSA/MAS Spectral Data File
#VERSION     : 1.0
#TITLE       : 'NIST K229' standard for 'N132962' detector
#NPOINTS     : 4096
#NCOLUMNS    : 1
#XUNITS      : eV
#YUNITS      : counts
#DATATYPE    : Y
#SIGNALTYPE  : EDS
#XLABEL      : Energy (eV)
#YLABEL      : Counts
#XPERCHAN -eV: 9.99778
#OFFSET   -eV: 1.69135
#CHOFFSET    : 0
#OWNER       : Unknown
#ELEVANGLE   : 35
#BEAMKV   -kV: 20
#LIVETIME  -s: 1201.54
#REALTIME  -s: 1337.1
#PROBECUR -nA: 1.21918
##WORKING -mm: 15
##D2STDCMP   : NIST K229,(O:20.9940),(Si:14.0240),(Pb:64.9821)
##SIMILAR    : 1.0
#SPECTRUM    :
108,
2693,
59284,
37271,
142666,
41082,
35366,
38126,
42017,
46993,
51389,
56751,
272895,
202684,
45105,
46548,
99965,
779795,
130727,
63498,
27543,
30351,
38173,
28410,
26143,
27540,
26434,
26418,
25481,
26366,
26298,
25243,
27000,
25172,
25486,
24655,
23287,
22945,
22800,
22420,
22278,
21453,
21203,
20544,
19936,
20274,
21280,
18857,
18589,
18232,
17890,
17400,
16849,
17594,
16559,
15680,
15189,
15188,
14682,
14503,
13904,
13441,
13218,
12821,
12518,
14013,
14389,
11764,
11511,
10892,
10897,
10646,
10364,
10208,
15483,
59573,
32520,
9293,
8639,
8352,
8132,
8117,
7486,
7079,
6936,
6757,
6916,
7246,
6986,
9828,
26648,
11362,
6401,
6263,
4967,
4408,
4271,
4054,
3986,
3853,
3572,
3525,
3420,
3069,
3213,
4448,
3845,
2878,
3024,
2590,
2274,
2099,
2112,
1938,
1844,
1669,
1678,
1515,
1506,
1334,
1323,
1220,
1129,
1118,
996,
930,
860,
792,
754,
676,
629,
532,
504,
472,
423,
350,
309,
273,
244,
180,
145,
99,
55,
29,
20,
20,
24,
19,
18,
20,
13,
26,
16,
13,
16,
13,
11,
12,
7,
6,
5,
11,
6,
8,
12,
16,
10,
7,
9,
6,
3,
2,
5,
4,
4,
3,
2,
6,
7,
8,
4,
4,
4,
6,
2,
7,
1,
4,
3,
4,
0,
2,
1,
2,
3,
2,
3,
0,
1,
1,
2,
2,
5,
0,
1,
3,
0,
1,
2,
1,
0,
1,
2,
0,
0,
0,
0,
1,
2,
1,
1,
0,
0,
0,
0,
0,
1,
1,
0,
0,
0,
0,
2,
1,
0,
0,
0,
1,
0,
0,
0,
1,
0,
0,
0,
0,
0,
0,
0,
0,
0,
0,
0,
0,
0,
0,
0,
0,
0,
0,
0,
0,
0,
0,
0,
0,
0,
0,
0,
0,
0,
0,
0,
0,
0,
0,
0,
0,
0,
0,
0,
0,
0,
0,
0,
0,
0,
0,
0,
0,
0,
0,
0,
0,
#ENDOFDATA   :