File: N132962/Quantification/20 keV/Glass Mount IIIB/NIST K1070 std.msa
#FORMAT      : EMSA/MAS Spectral Data File
#VERSION     : 1.0
#TITLE       : 'NIST K1070' standard for 'N132962' detector
#NPOINTS     : 4096
#NCOLUMNS    : 1
#XUNITS      : eV
#YUNITS      : counts
#DATATYPE    : Y
#SIGNALTYPE  : EDS
#XLABEL      : Energy (eV)
#YLABEL      : Counts
#XPERCHAN -eV: 9.99778
#OFFSET   -eV: 1.69135
#CHOFFSET    : 0
#OWNER       : Unknown
#ELEVANGLE   : 35
#BEAMKV   -kV: 20
#LIVETIME  -s: 1200.81
#REALTIME  -s: 1299.91
#PROBECUR -nA: 1.22416
##WORKING -mm: 15
##D2STDCMP   : NIST K1070,(O:34.3086),(Mg:7.5385),(Si:18.6986),(Ca:8.9337),(Zn:10.0421),(Ba:11.1954),(Pb:9.2832)
##SIMILAR    : 1.1
#SPECTRUM    :
108,
1252,
47069,
35145,
234977,
22626,
29166,
137882,
30565,
263687,
26446,
31118,
260502,
136368,
24993,
23073,
31152,
108167,
32754,
27328,
21244,
21372,
22648,
20046,
19436,
20739,
148093,
59252,
25146,
36830,
16475,
20668,
97852,
15989,
30157,
37550,
16221,
25953,
12941,
14891,
14305,
13034,
11989,
10818,
10396,
10341,
10655,
9657,
9374,
9065,
8956,
8630,
8388,
8392,
8049,
7509,
7290,
7342,
7054,
6904,
6840,
27598,
41939,
6939,
5937,
5993,
6127,
5638,
10649,
7573,
4943,
4684,
4462,
4469,
5138,
9765,
6672,
3900,
3773,
3703,
3540,
3416,
3155,
3073,
3056,
2949,
2841,
2730,
2552,
2915,
4766,
2984,
2289,
2173,
1940,
1810,
1713,
1721,
1703,
1483,
1529,
1397,
1365,
1244,
1173,
1285,
1234,
1105,
1031,
959,
814,
840,
814,
707,
751,
637,
596,
547,
533,
467,
497,
419,
407,
367,
334,
318,
299,
256,
274,
244,
212,
176,
146,
158,
146,
102,
92,
78,
66,
45,
48,
30,
17,
9,
4,
4,
3,
6,
4,
4,
6,
7,
3,
6,
2,
3,
3,
4,
0,
5,
0,
2,
1,
1,
1,
0,
0,
1,
1,
0,
4,
0,
0,
1,
0,
0,
2,
0,
2,
0,
0,
0,
0,
1,
0,
2,
1,
1,
0,
1,
2,
0,
0,
0,
0,
2,
0,
0,
1,
0,
0,
0,
1,
1,
0,
0,
0,
0,
1,
0,
0,
0,
0,
0,
0,
0,
0,
0,
0,
0,
0,
0,
0,
0,
0,
0,
0,
0,
0,
0,
0,
0,
0,
0,
0,
0,
0,
0,
0,
0,
0,
0,
0,
0,
0,
0,
0,
0,
0,
0,
0,
0,
0,
0,
0,
0,
0,
0,
0,
0,
0,
0,
0,
0,
0,
0,
0,
0,
0,
0,
0,
0,
0,
0,
0,
0,
0,
0,
0,
0,
0,
0,
0,
0,
0,
0,
0,
0,
0,
0,
0,
0,
0,
0,
#ENDOFDATA   :