File: N132962/Quantification/20 keV/Glass Mount IIIB/NIST K378 std.msa
#FORMAT      : EMSA/MAS Spectral Data File
#VERSION     : 1.0
#TITLE       : 'NIST K378' standard for 'N132962' detector
#NPOINTS     : 4096
#NCOLUMNS    : 1
#XUNITS      : eV
#YUNITS      : counts
#DATATYPE    : Y
#SIGNALTYPE  : EDS
#XLABEL      : Energy (eV)
#YLABEL      : Counts
#XPERCHAN -eV: 9.99778
#OFFSET   -eV: 1.69135
#CHOFFSET    : 0
#OWNER       : Unknown
#ELEVANGLE   : 35
#BEAMKV   -kV: 20
#LIVETIME  -s: 1200.82
#REALTIME  -s: 1299.4
#PROBECUR -nA: 1.22592
##WORKING -mm: 15
##D2STDCMP   : NIST K378,(O:41.6622),(Na:10.1930),(Si:31.0491),(Zn:4.8363),(Ba:10.1564),(U:2.1030)
##SIMILAR    : 2.0
#SPECTRUM    :
98,
1219,
37736,
51155,
397856,
17997,
22406,
123374,
31279,
21185,
24553,
31870,
431960,
201690,
16149,
16566,
21561,
17496,
17616,
17254,
17779,
16456,
18214,
25568,
24543,
18028,
14865,
14008,
15521,
13467,
13049,
17185,
87051,
12629,
25284,
31781,
13099,
21539,
9973,
11423,
11461,
9807,
9239,
8213,
7891,
7797,
7779,
7067,
6961,
6736,
6490,
6187,
6188,
6217,
5826,
5592,
5329,
5274,
5059,
5059,
5083,
14022,
21028,
4584,
4110,
4113,
3941,
3945,
6250,
4834,
3514,
3447,
3287,
3144,
3018,
2892,
2824,
2705,
2565,
2501,
2375,
2319,
2204,
2183,
2048,
2020,
1938,
1803,
1812,
1701,
1547,
1564,
1381,
1405,
1340,
1248,
1323,
1274,
1186,
1039,
1035,
935,
847,
852,
866,
771,
747,
692,
704,
557,
575,
512,
520,
500,
443,
418,
388,
385,
356,
310,
294,
288,
272,
217,
222,
218,
205,
164,
118,
143,
138,
137,
92,
77,
82,
74,
63,
46,
40,
32,
24,
20,
10,
5,
3,
1,
0,
2,
2,
1,
2,
1,
0,
0,
0,
1,
3,
2,
1,
0,
2,
3,
0,
4,
0,
0,
2,
0,
0,
1,
1,
0,
1,
0,
0,
0,
0,
0,
1,
0,
0,
0,
0,
0,
0,
0,
0,
0,
1,
0,
1,
1,
0,
1,
0,
2,
0,
0,
0,
0,
0,
0,
0,
0,
0,
0,
0,
0,
0,
0,
0,
0,
0,
0,
0,
1,
0,
0,
0,
0,
0,
0,
0,
0,
0,
0,
0,
0,
0,
0,
0,
0,
0,
0,
0,
0,
0,
0,
0,
0,
0,
0,
0,
0,
0,
0,
0,
0,
0,
0,
0,
0,
0,
0,
0,
0,
0,
0,
0,
0,
0,
0,
0,
0,
0,
0,
0,
0,
0,
0,
0,
0,
0,
0,
0,
0,
0,
0,
0,
0,
0,
0,
0,
0,
0,
0,
0,
0,
0,
0,
0,
0,
0,
0,
#ENDOFDATA   :