File: N132962/Quantification/20 keV/Glass Mount IIIB/NIST K366 std.msa
#FORMAT      : EMSA/MAS Spectral Data File
#VERSION     : 1.0
#TITLE       : 'NIST K366' standard for 'N132962' detector
#NPOINTS     : 4096
#NCOLUMNS    : 1
#XUNITS      : eV
#YUNITS      : counts
#DATATYPE    : Y
#SIGNALTYPE  : EDS
#XLABEL      : Energy (eV)
#YLABEL      : Counts
#XPERCHAN -eV: 9.99778
#OFFSET   -eV: 1.69135
#CHOFFSET    : 0
#OWNER       : Unknown
#ELEVANGLE   : 35
#BEAMKV   -kV: 20
#LIVETIME  -s: 1201.47
#REALTIME  -s: 1338.63
#PROBECUR -nA: 1.22475
##WORKING -mm: 15
##D2STDCMP   : NIST K366,(O:20.4271),(Si:13.4490),(Pb:66.1239)
##SIMILAR    : 1.0
#SPECTRUM    :
134,
2885,
60267,
37305,
140120,
42024,
35923,
38695,
42662,
47833,
52441,
56974,
263542,
201209,
45872,
48100,
102246,
800710,
133468,
64416,
27939,
30822,
38582,
28808,
26863,
28366,
27082,
26891,
25939,
27119,
26846,
25677,
27814,
25586,
25827,
24946,
23790,
23772,
23361,
22663,
22687,
21640,
21597,
20966,
20466,
20914,
21494,
19702,
18960,
18639,
18345,
17667,
17396,
18094,
16663,
15949,
15869,
15296,
14922,
14686,
14173,
13776,
13643,
13382,
12770,
13989,
14574,
11949,
11671,
11406,
11081,
10682,
10610,
10264,
15700,
61495,
33455,
9723,
8782,
8466,
8339,
8258,
7758,
7336,
7121,
7029,
7039,
7622,
7146,
10008,
27726,
11593,
6489,
6390,
4997,
4474,
4428,
4142,
3915,
3848,
3802,
3560,
3359,
3272,
3318,
4596,
3862,
2933,
3066,
2714,
2289,
2171,
2115,
1993,
2004,
1846,
1685,
1615,
1497,
1377,
1356,
1282,
1184,
1070,
1009,
911,
839,
825,
752,
682,
657,
600,
583,
470,
382,
395,
329,
270,
207,
173,
145,
100,
72,
29,
19,
29,
15,
16,
18,
18,
21,
24,
7,
16,
8,
13,
16,
10,
12,
7,
11,
5,
9,
6,
8,
11,
11,
3,
2,
3,
2,
7,
5,
5,
5,
1,
4,
3,
1,
5,
6,
5,
4,
4,
4,
1,
6,
6,
2,
6,
2,
1,
2,
1,
4,
4,
3,
2,
1,
1,
1,
3,
1,
1,
0,
2,
0,
0,
1,
1,
1,
1,
2,
1,
0,
2,
1,
1,
1,
0,
1,
0,
0,
1,
1,
0,
0,
0,
2,
0,
0,
1,
1,
1,
0,
0,
0,
1,
0,
0,
0,
0,
0,
0,
0,
0,
0,
0,
0,
0,
0,
0,
0,
1,
0,
0,
0,
0,
0,
0,
0,
0,
0,
0,
0,
0,
0,
0,
0,
0,
0,
0,
0,
0,
0,
0,
0,
0,
0,
0,
0,
0,
0,
0,
0,
0,
0,
0,
0,
0,
0,
0,
0,
0,
#ENDOFDATA   :