File: N132962/Quantification/20 keV/Glass Mount IIIB/NIST K408 std.msa
#FORMAT      : EMSA/MAS Spectral Data File
#VERSION     : 1.0
#TITLE       : 'NIST K408' standard for 'N132962' detector
#NPOINTS     : 4096
#NCOLUMNS    : 1
#XUNITS      : eV
#YUNITS      : counts
#DATATYPE    : Y
#SIGNALTYPE  : EDS
#XLABEL      : Energy (eV)
#YLABEL      : Counts
#XPERCHAN -eV: 9.99778
#OFFSET   -eV: 1.69135
#CHOFFSET    : 0
#OWNER       : Unknown
#ELEVANGLE   : 35
#BEAMKV   -kV: 20
#LIVETIME  -s: 1201.09
#REALTIME  -s: 1333.37
#PROBECUR -nA: 1.22588
##WORKING -mm: 15
##D2STDCMP   : NIST K408,(O:21.3174),(Si:14.0240),(Eu:4.3182),(Pb:60.3405)
##SIMILAR    : 1.1
#SPECTRUM    :
111,
2671,
60185,
37657,
145901,
40116,
38504,
38705,
58598,
45832,
50282,
54309,
262763,
192222,
43310,
45079,
93071,
712316,
121309,
61286,
27283,
30178,
37517,
28148,
26332,
28093,
26250,
26258,
25480,
26284,
25985,
24944,
27556,
24834,
25108,
24253,
23305,
23495,
22502,
22116,
21858,
25382,
36823,
20585,
20098,
20198,
30192,
21158,
19091,
20984,
17708,
16930,
16645,
18226,
16708,
15911,
15266,
14588,
14217,
13987,
13495,
13313,
13095,
12601,
12474,
13565,
13819,
11509,
11216,
10795,
10587,
10444,
10062,
10064,
14999,
55913,
30222,
8894,
8453,
8071,
7933,
7719,
7381,
6967,
6841,
6762,
6626,
7005,
6778,
9292,
25085,
10964,
6067,
6134,
4780,
4359,
4132,
4026,
3756,
3610,
3503,
3447,
3250,
3122,
3163,
4235,
3608,
2702,
2896,
2404,
2270,
2132,
1980,
1960,
1740,
1620,
1616,
1460,
1434,
1331,
1228,
1239,
1147,
1029,
980,
846,
845,
788,
725,
649,
582,
546,
468,
450,
389,
344,
305,
254,
231,
185,
150,
92,
45,
37,
18,
21,
17,
11,
15,
6,
17,
15,
16,
8,
14,
10,
8,
7,
9,
13,
11,
12,
8,
7,
7,
6,
8,
4,
7,
9,
6,
4,
3,
3,
4,
8,
8,
5,
8,
7,
2,
8,
5,
2,
3,
5,
4,
5,
2,
1,
0,
2,
2,
4,
2,
2,
2,
2,
0,
4,
4,
2,
0,
2,
1,
2,
1,
0,
2,
0,
1,
0,
2,
0,
1,
0,
0,
1,
2,
2,
0,
0,
0,
0,
2,
3,
1,
0,
3,
1,
2,
0,
0,
1,
0,
0,
0,
0,
0,
0,
1,
0,
0,
0,
0,
0,
0,
0,
0,
0,
0,
0,
0,
0,
0,
0,
0,
0,
0,
0,
0,
0,
0,
0,
0,
0,
0,
0,
0,
0,
0,
0,
0,
0,
0,
0,
0,
0,
0,
0,
0,
0,
0,
0,
0,
0,
0,
0,
0,
0,
0,
0,
0,
0,
#ENDOFDATA   :