File: N132962/Quantification/20 keV/Glass Mount IIIB/NIST K1010 std.msa
#FORMAT      : EMSA/MAS Spectral Data File
#VERSION     : 1.0
#TITLE       : ''NIST K1010'' standard for 'N132962' detector
#NPOINTS     : 4096
#NCOLUMNS    : 1
#XUNITS      : eV
#YUNITS      : counts
#DATATYPE    : Y
#SIGNALTYPE  : EDS
#XLABEL      : Energy (eV)
#YLABEL      : Counts
#XPERCHAN -eV: 9.99778
#OFFSET   -eV: 1.69135
#CHOFFSET    : 0
#DATE        : 18-Sep-2025
#TIME        : 10:11:00
#OWNER       : Unknown
#ELEVANGLE   : 35
#BEAMKV   -kV: 20
#LIVETIME  -s: 1200.78
#REALTIME  -s: 1299.72
#PROBECUR -nA: 1.21237
##WORKING -mm: 15
##D2STDCMP   : 'NIST K1010',(O:38.9610),(Al:8.9228),(Si:21.0172),(K:1.8678),(Ca:6.7467),(Ge:1.5616),(Rb:2.0574),(Sr:10.0541),(Te:0.8954),(Cs:2.1222),(La:1.9185),(Eu:1.9432),(Gd:1.9520)
##SIMILAR    : 1.0
#SPECTRUM    :
126,
1257,
35502,
32863,
235558,
18153,
25363,
26180,
43948,
41401,
59787,
180294,
349899,
360511,
31129,
17953,
20651,
18186,
18173,
18360,
18033,
18637,
17745,
24925,
49735,
20018,
118275,
51135,
19089,
31347,
17919,
23219,
14576,
31027,
14774,
14388,
17747,
12932,
12849,
11933,
10311,
12501,
17861,
17608,
10522,
9056,
13683,
9637,
12395,
9937,
7894,
8278,
7006,
7581,
6816,
6794,
6557,
6003,
5936,
5686,
5479,
5247,
4965,
4814,
4807,
4717,
4473,
4358,
4215,
4089,
6779,
6447,
3678,
3665,
3454,
3298,
3218,
3004,
3498,
3153,
2744,
2687,
2466,
2478,
2415,
2258,
2168,
2112,
2008,
1943,
1902,
1808,
1687,
1626,
1558,
2161,
1960,
1435,
1291,
1205,
1978,
3436,
1647,
969,
982,
887,
911,
973,
788,
683,
691,
664,
717,
871,
594,
531,
492,
391,
395,
367,
375,
302,
278,
289,
252,
245,
223,
197,
178,
155,
153,
129,
127,
109,
102,
78,
60,
51,
57,
36,
33,
13,
8,
5,
3,
1,
1,
4,
3,
2,
2,
0,
3,
2,
1,
2,
2,
4,
2,
1,
0,
3,
0,
2,
0,
1,
1,
0,
0,
1,
0,
0,
2,
0,
0,
0,
1,
1,
0,
0,
0,
0,
0,
0,
0,
0,
0,
0,
0,
0,
1,
1,
0,
1,
0,
0,
0,
0,
0,
0,
0,
1,
0,
0,
0,
0,
0,
0,
1,
1,
0,
0,
0,
0,
0,
0,
0,
0,
0,
0,
0,
0,
0,
0,
0,
0,
0,
0,
0,
0,
0,
0,
0,
0,
0,
0,
0,
0,
0,
0,
0,
0,
0,
0,
0,
0,
0,
0,
0,
0,
0,
0,
0,
0,
0,
0,
0,
0,
0,
0,
0,
0,
0,
0,
0,
0,
0,
0,
0,
0,
0,
0,
0,
0,
0,
0,
0,
0,
0,
0,
0,
0,
0,
0,
0,
0,
0,
0,
0,
0,
0,
0,
0,
0,
#ENDOFDATA   :