File: N132962/Quantification/20 keV/Glass Mount IIIB/NIST K1229 std.msa
#FORMAT      : EMSA/MAS Spectral Data File
#VERSION     : 1.0
#TITLE       : 'NIST K1229' standard for 'N132962' detector
#NPOINTS     : 4096
#NCOLUMNS    : 1
#XUNITS      : eV
#YUNITS      : counts
#DATATYPE    : Y
#SIGNALTYPE  : EDS
#XLABEL      : Energy (eV)
#YLABEL      : Counts
#XPERCHAN -eV: 9.99778
#OFFSET   -eV: 1.69135
#CHOFFSET    : 0
#OWNER       : Unknown
#ELEVANGLE   : 35
#BEAMKV   -kV: 20
#LIVETIME  -s: 1201.02
#REALTIME  -s: 1297.93
#PROBECUR -nA: 1.22375
##WORKING -mm: 15
##D2STDCMP   : NIST K1229,(O:41.0165),(Mg:1.7730),(Al:9.3409),(Si:21.9989),(Ca:10.5131),(Sr:7.4581),(Ba:7.8995)
##SIMILAR    : 1.1
#SPECTRUM    :
126,
1253,
36174,
31509,
244410,
17076,
19416,
24405,
25262,
98310,
56712,
178331,
320587,
306392,
28747,
17384,
20084,
17618,
17331,
17579,
17146,
17259,
17196,
17763,
16130,
18600,
166974,
63730,
22221,
36675,
12866,
15764,
69453,
12445,
22106,
26922,
12519,
19356,
9938,
11811,
11128,
9973,
9145,
8360,
8011,
7956,
7842,
7311,
6944,
6738,
6721,
6449,
6268,
6368,
6004,
5652,
5459,
5410,
5183,
4949,
4831,
4652,
4523,
4551,
4297,
4167,
3968,
3953,
3881,
3647,
3562,
3439,
3228,
3238,
3026,
2931,
2824,
2708,
2776,
2613,
2483,
2425,
2268,
2269,
2223,
1974,
1917,
1922,
1838,
1756,
1658,
1644,
1534,
1447,
1417,
1283,
1278,
1231,
1188,
1088,
1614,
2653,
1357,
905,
834,
824,
752,
729,
659,
620,
602,
538,
582,
727,
527,
455,
395,
364,
352,
339,
323,
275,
279,
265,
229,
217,
202,
199,
161,
156,
145,
120,
88,
105,
100,
68,
69,
62,
40,
40,
23,
14,
9,
4,
2,
2,
4,
2,
0,
1,
1,
3,
0,
1,
2,
2,
0,
0,
1,
1,
1,
0,
1,
0,
0,
1,
1,
0,
0,
0,
0,
0,
0,
0,
0,
0,
2,
0,
2,
0,
0,
0,
0,
2,
0,
0,
0,
0,
0,
0,
1,
0,
0,
0,
1,
0,
0,
0,
0,
0,
1,
0,
0,
0,
0,
0,
0,
0,
0,
0,
0,
0,
0,
0,
1,
0,
0,
0,
0,
0,
0,
0,
0,
0,
0,
0,
0,
0,
0,
0,
0,
0,
0,
0,
0,
0,
0,
0,
0,
1,
0,
0,
0,
0,
0,
0,
0,
0,
0,
0,
0,
0,
0,
0,
0,
0,
0,
0,
0,
0,
0,
0,
0,
0,
0,
0,
0,
0,
0,
0,
0,
0,
0,
0,
0,
0,
0,
0,
0,
0,
0,
0,
0,
0,
0,
0,
0,
0,
0,
0,
0,
0,
0,
0,
#ENDOFDATA   :