File: N132962/Quantification/20 keV/Glass Mount IIIB/NIST K873 std.msa
#FORMAT      : EMSA/MAS Spectral Data File
#VERSION     : 1.0
#TITLE       : 'NIST K873' standard for 'N132962' detector
#NPOINTS     : 4096
#NCOLUMNS    : 1
#XUNITS      : eV
#YUNITS      : counts
#DATATYPE    : Y
#SIGNALTYPE  : EDS
#XLABEL      : Energy (eV)
#YLABEL      : Counts
#XPERCHAN -eV: 9.99778
#OFFSET   -eV: 1.69135
#CHOFFSET    : 0
#OWNER       : Unknown
#ELEVANGLE   : 35
#BEAMKV   -kV: 20
#LIVETIME  -s: 1200.92
#REALTIME  -s: 1312.52
#PROBECUR -nA: 1.22616
##WORKING -mm: 15
##D2STDCMP   : NIST K873,(O:25.4593),(Al:0.2646),(Si:11.4529),(Mn:0.3160),(Ge:17.0041),(Ba:21.9429),(Ce:0.4070),(Ta:0.4095),(Pb:22.7437)
##SIMILAR    : 1.0
#SPECTRUM    :
113,
2048,
46712,
43831,
222955,
34788,
33173,
41923,
75680,
108176,
31980,
38123,
171293,
108513,
30844,
31762,
49070,
247211,
58143,
42692,
27640,
28461,
31499,
26590,
26137,
25865,
24717,
24680,
28838,
24859,
23910,
34254,
193628,
24790,
55250,
71593,
26078,
47349,
20337,
23138,
23606,
20586,
22658,
17110,
15491,
15784,
16632,
14596,
14150,
13800,
13775,
13265,
13030,
13414,
12568,
12112,
11597,
11594,
12519,
11025,
10582,
10156,
10054,
9731,
9673,
9724,
9875,
9134,
8801,
9369,
41015,
40691,
8507,
7495,
9001,
23338,
14241,
7114,
12040,
9770,
5888,
5745,
5441,
5238,
5154,
4795,
4815,
4798,
4769,
5553,
10533,
5717,
4066,
3881,
3444,
3118,
3203,
2938,
2823,
2724,
2613,
2545,
2452,
2280,
2231,
2594,
2303,
1930,
1880,
1730,
1611,
1513,
1430,
1331,
1295,
1251,
1118,
1051,
1047,
956,
877,
826,
794,
706,
665,
617,
586,
525,
518,
459,
392,
361,
331,
307,
254,
227,
198,
172,
166,
78,
83,
73,
32,
14,
9,
8,
12,
15,
13,
10,
15,
6,
8,
13,
6,
5,
8,
10,
8,
7,
6,
3,
8,
7,
1,
6,
4,
4,
3,
2,
3,
2,
2,
2,
4,
1,
3,
3,
4,
1,
5,
2,
2,
3,
1,
4,
3,
1,
1,
2,
0,
2,
2,
1,
0,
1,
1,
0,
1,
3,
1,
0,
0,
0,
1,
1,
1,
2,
0,
0,
0,
1,
0,
1,
0,
0,
0,
0,
0,
1,
0,
1,
0,
0,
0,
0,
0,
0,
0,
0,
0,
0,
0,
0,
0,
0,
0,
0,
0,
0,
0,
0,
0,
0,
0,
0,
0,
0,
0,
0,
0,
0,
0,
0,
0,
0,
0,
0,
0,
0,
0,
0,
0,
0,
0,
0,
0,
0,
0,
0,
0,
0,
0,
0,
0,
0,
0,
0,
0,
0,
0,
0,
0,
0,
0,
0,
0,
0,
0,
0,
0,
0,
0,
0,
#ENDOFDATA   :