File: N132962/Quantification/20 keV/Glass Mount IIIB/NIST K491 std.msa
#FORMAT      : EMSA/MAS Spectral Data File
#VERSION     : 1.0
#TITLE       : 'NIST K491' standard for 'N132962' detector
#NPOINTS     : 4096
#NCOLUMNS    : 1
#XUNITS      : eV
#YUNITS      : counts
#DATATYPE    : Y
#SIGNALTYPE  : EDS
#XLABEL      : Energy (eV)
#YLABEL      : Counts
#XPERCHAN -eV: 9.99778
#OFFSET   -eV: 1.69135
#CHOFFSET    : 0
#OWNER       : Unknown
#ELEVANGLE   : 35
#BEAMKV   -kV: 20
#LIVETIME  -s: 1201.28
#REALTIME  -s: 1333.89
#PROBECUR -nA: 1.22616
##WORKING -mm: 15
##D2STDCMP   : NIST K491,(Li:0.0005),(B:0.0342),(O:16.6482),(Al:0.0847),(Si:0.0888),(Ti:0.1559),(Fe:0.1819),(Ge:26.3598),(Zr:0.2961),(Ce:0.4559),(Ta:0.5897),(Pb:55.0955)
##SIMILAR    : 1.1
#SPECTRUM    :
135,
2960,
58605,
37688,
124069,
45487,
41268,
52099,
129842,
185586,
39492,
42425,
52337,
87426,
45292,
49328,
90028,
649484,
115243,
62777,
29782,
32644,
39346,
30823,
28486,
29952,
29441,
28938,
27851,
27794,
27579,
27144,
32511,
27078,
27767,
28445,
25256,
25397,
25748,
24291,
24276,
23254,
22280,
22257,
21741,
22490,
24279,
20250,
20008,
19176,
19229,
18778,
17981,
18884,
17515,
16684,
16342,
15906,
17518,
15745,
14736,
14612,
14140,
13530,
13403,
14685,
14907,
13195,
12465,
13492,
69579,
68581,
11844,
10792,
15479,
54731,
30580,
10520,
18903,
15483,
8678,
8395,
7533,
7589,
7238,
6928,
7239,
7391,
7288,
9366,
24004,
10726,
6333,
6158,
5143,
4644,
4429,
4303,
4200,
4075,
3767,
3609,
3444,
3349,
3324,
4354,
3897,
2988,
3072,
2788,
2376,
2322,
2090,
2058,
1849,
1860,
1752,
1675,
1624,
1399,
1376,
1384,
1229,
1154,
1079,
1021,
918,
869,
752,
776,
653,
621,
540,
506,
466,
401,
337,
267,
253,
196,
136,
129,
80,
48,
23,
35,
54,
20,
20,
20,
21,
13,
23,
14,
18,
13,
14,
17,
11,
16,
11,
15,
14,
9,
10,
8,
9,
11,
12,
7,
8,
9,
4,
7,
6,
4,
6,
9,
9,
4,
16,
7,
6,
6,
7,
5,
7,
5,
3,
4,
4,
3,
2,
4,
4,
6,
2,
5,
7,
3,
4,
2,
0,
1,
4,
2,
1,
1,
1,
1,
0,
1,
2,
0,
1,
2,
0,
0,
0,
0,
0,
1,
2,
0,
0,
0,
0,
0,
2,
0,
0,
0,
0,
0,
0,
1,
0,
0,
0,
0,
0,
0,
0,
0,
0,
1,
0,
0,
0,
0,
0,
1,
0,
0,
0,
0,
0,
0,
1,
0,
1,
0,
0,
0,
0,
0,
0,
0,
0,
0,
0,
0,
0,
0,
0,
0,
0,
0,
0,
0,
0,
0,
0,
0,
0,
0,
0,
0,
0,
0,
0,
0,
0,
0,
#ENDOFDATA   :