File: N132962/Quantification/20 keV/Glass Mount IIIB/NIST K253 std.msa
#FORMAT      : EMSA/MAS Spectral Data File
#VERSION     : 1.0
#TITLE       : 'NIST K253' standard for 'N132962' detector
#NPOINTS     : 4096
#NCOLUMNS    : 1
#XUNITS      : eV
#YUNITS      : counts
#DATATYPE    : Y
#SIGNALTYPE  : EDS
#XLABEL      : Energy (eV)
#YLABEL      : Counts
#XPERCHAN -eV: 9.99778
#OFFSET   -eV: 1.69135
#CHOFFSET    : 0
#OWNER       : Unknown
#ELEVANGLE   : 35
#BEAMKV   -kV: 20
#LIVETIME  -s: 1201.08
#REALTIME  -s: 1307.96
#PROBECUR -nA: 1.2221
##WORKING -mm: 15
##D2STDCMP   : NIST K253,(O:31.6381),(Si:18.6986),(Mn:6.3193),(Co:1.9662),(Cu:1.9971),(Zn:8.0337),(Ba:31.3470)
##SIMILAR    : 1.0
#SPECTRUM    :
99,
1644,
39259,
53574,
354744,
33298,
33759,
109574,
25019,
23671,
26458,
31683,
243130,
124108,
23482,
24192,
27045,
25522,
25358,
26114,
25129,
24202,
24766,
23538,
22749,
22990,
22053,
21427,
27866,
21863,
20609,
36297,
275739,
22036,
66574,
89846,
25130,
56148,
15734,
21471,
21785,
19636,
93996,
19315,
11961,
12029,
19909,
14199,
10548,
20430,
17957,
9991,
9668,
9854,
10335,
10482,
8662,
17576,
14126,
8105,
8109,
24925,
37054,
8762,
8082,
6848,
6613,
6765,
10397,
8048,
5881,
5663,
5435,
5160,
5325,
4945,
4803,
4606,
4495,
4320,
4261,
4045,
4002,
3723,
3603,
3442,
3352,
3258,
3132,
2886,
2806,
2834,
2612,
2587,
2415,
2235,
2221,
2095,
2046,
1866,
1866,
1745,
1740,
1573,
1455,
1393,
1368,
1233,
1205,
1180,
1066,
1099,
977,
936,
860,
856,
784,
699,
642,
648,
584,
541,
538,
456,
460,
394,
378,
350,
325,
275,
280,
228,
213,
227,
172,
119,
106,
111,
82,
75,
50,
34,
23,
10,
9,
4,
8,
6,
8,
8,
6,
4,
1,
4,
4,
5,
2,
6,
4,
0,
6,
2,
2,
2,
1,
2,
3,
3,
2,
2,
4,
4,
1,
0,
0,
2,
0,
1,
1,
1,
0,
2,
0,
2,
1,
0,
1,
1,
0,
1,
0,
0,
0,
0,
0,
0,
0,
0,
0,
0,
0,
0,
0,
1,
1,
0,
1,
1,
0,
0,
0,
1,
0,
0,
0,
1,
0,
0,
0,
0,
1,
0,
0,
0,
1,
0,
0,
0,
0,
0,
0,
0,
0,
0,
0,
0,
0,
0,
0,
0,
0,
0,
0,
0,
0,
0,
0,
0,
0,
0,
0,
0,
0,
0,
0,
0,
0,
0,
0,
0,
0,
0,
0,
0,
0,
0,
0,
0,
0,
0,
0,
0,
0,
0,
0,
0,
0,
0,
0,
0,
0,
0,
0,
0,
0,
0,
0,
0,
0,
0,
0,
0,
0,
0,
#ENDOFDATA   :