File: N132962/Quantification/20 keV/Glass Mount IIIB/NIST K979 std.msa
#FORMAT      : EMSA/MAS Spectral Data File
#VERSION     : 1.0
#TITLE       : 'NIST K979' standard for 'N132962' detector
#NPOINTS     : 4096
#NCOLUMNS    : 1
#XUNITS      : eV
#YUNITS      : counts
#DATATYPE    : Y
#SIGNALTYPE  : EDS
#XLABEL      : Energy (eV)
#YLABEL      : Counts
#XPERCHAN -eV: 9.99778
#OFFSET   -eV: 1.69135
#CHOFFSET    : 0
#OWNER       : Unknown
#ELEVANGLE   : 35
#BEAMKV   -kV: 20
#LIVETIME  -s: 1200.6
#REALTIME  -s: 1297.16
#PROBECUR -nA: 1.22416
##WORKING -mm: 15
##D2STDCMP   : NIST K979,(Li:1.0452),(O:40.5783),(Al:8.9228),(Si:21.0172),(K:1.8678),(Ca:6.7467),(Ti:1.3489),(Sr:10.0541),(Nb:1.5729),(Sb:0.8431),(Cs:2.1222),(Sm:1.9404),(Dy:1.9605)
##SIMILAR    : 1.0
#SPECTRUM    :
124,
1344,
33006,
34817,
233899,
16739,
21152,
25949,
31966,
40028,
60794,
182975,
315962,
363470,
31796,
23675,
32177,
19155,
17771,
17799,
17363,
17389,
16830,
24466,
48462,
19865,
121123,
47284,
20689,
28848,
17344,
22465,
35580,
22528,
13099,
16471,
11922,
10717,
11094,
10487,
17832,
11125,
8916,
8707,
11658,
10438,
14368,
11750,
7478,
7232,
7074,
8376,
9905,
7345,
7212,
6676,
5815,
5753,
5447,
5274,
5496,
4829,
4964,
4564,
4553,
4394,
4217,
4087,
3866,
3877,
3719,
3512,
3588,
3429,
3251,
3204,
3026,
2792,
2762,
2585,
2666,
2392,
2341,
2272,
2228,
2088,
1975,
1938,
1880,
1763,
1677,
1650,
1545,
1492,
1449,
1356,
1297,
1177,
1263,
1133,
1917,
3450,
1527,
944,
836,
861,
797,
713,
760,
698,
607,
642,
626,
796,
577,
481,
419,
423,
348,
361,
327,
337,
278,
253,
262,
219,
209,
177,
163,
161,
123,
100,
106,
104,
114,
69,
80,
48,
41,
27,
22,
15,
9,
2,
1,
3,
6,
2,
1,
0,
0,
2,
3,
4,
1,
0,
4,
1,
1,
0,
0,
2,
0,
0,
1,
0,
0,
1,
0,
0,
1,
0,
0,
1,
1,
0,
1,
0,
0,
1,
1,
0,
0,
0,
1,
0,
0,
0,
0,
1,
0,
1,
0,
0,
0,
0,
0,
0,
0,
0,
0,
0,
0,
0,
0,
0,
0,
0,
0,
0,
0,
0,
0,
0,
0,
0,
0,
0,
0,
1,
0,
0,
0,
0,
0,
0,
0,
0,
0,
0,
0,
0,
0,
0,
0,
0,
0,
0,
0,
0,
0,
0,
0,
0,
0,
0,
0,
0,
0,
0,
0,
0,
0,
0,
0,
0,
0,
0,
0,
0,
0,
0,
0,
0,
0,
0,
0,
0,
0,
0,
0,
0,
0,
0,
0,
0,
0,
0,
0,
0,
0,
0,
0,
0,
0,
0,
0,
0,
0,
0,
0,
0,
0,
0,
#ENDOFDATA   :