File: N132962/Quantification/20 keV/Chucks Circular/CC Chuck's Circular Apatite[3][4].msa
#FORMAT      : EMSA/MAS Spectral Data File
#VERSION     : 1.0
#TITLE       : CC Chuck's Circular Apatite[3][all]
#DATE        : 09-SEP-2025
#TIME        : 11:52
#OWNER       : Unknown
#NPOINTS     : 4096
#NCOLUMNS    : 1
#XUNITS      : eV
#YUNITS      : counts
#DATATYPE    : Y
#XPERCHAN    : 9.99778
#OFFSET      : 1.69135
#BEAMKV      : 20
#SIGNALTYPE  : EDS
#ELEVANGLE   : 35
#AZIMANGLE   : 0
#LIVETIME    : 240.135
#REALTIME    : 259.368
#PROBECUR    : 1.24242
#TAUWIND     : 0
#TDEADLYR    : 0
#TACTLYR     : 0.045
#TALWIND     : 0.025
#CHOFFSET    : 0.0
#XLABEL      : Energy (eV)
#YLABEL      : Counts
#XPOSITION   : 11.33385
#YPOSITION   : -0.13346
#ZPOSITION   : 37.19848
#EDSDET      : SD
##SPECIMEN   : CC Chuck's Circular Apatite[3][all]
##DET_HASH   : 12273538-fd48-a23f-0a19-f1e6fa85caef
##CALIB_HASH : 6abaa72c-aa41-8738-0be9-f592914732f3
##WORKING    : 15.02 mm
##DET_NAME   : EDAX All
##DET_MODE   : MediumLE
#SPECTRUM    :
25,
286,
19095,
4198,
25829,
7404,
3699,
4219,
4607,
5754,
5626,
5901,
6964,
7608,
76536,
22536,
4853,
4240,
4251,
6354,
3924,
3742,
3482,
3529,
3396,
4569,
119150,
40069,
7747,
19519,
2311,
2073,
2098,
2450,
2261,
2254,
2216,
2022,
2087,
1730,
1894,
1962,
1563,
1612,
1473,
1554,
1571,
1385,
1369,
1279,
1248,
1221,
1183,
1460,
1164,
1074,
1044,
1019,
941,
929,
872,
869,
859,
805,
767,
774,
703,
735,
689,
694,
644,
626,
635,
602,
562,
614,
519,
515,
444,
452,
481,
427,
396,
410,
447,
358,
318,
331,
318,
313,
277,
314,
309,
241,
235,
243,
228,
210,
196,
192,
169,
203,
165,
145,
168,
151,
126,
125,
137,
112,
114,
107,
90,
82,
78,
83,
78,
63,
59,
53,
61,
57,
52,
46,
35,
37,
34,
34,
17,
38,
21,
20,
18,
26,
13,
17,
7,
10,
9,
4,
2,
3,
1,
1,
0,
0,
0,
1,
0,
0,
0,
0,
0,
1,
0,
1,
0,
0,
0,
0,
0,
0,
1,
0,
0,
0,
0,
0,
0,
0,
0,
0,
0,
0,
0,
0,
0,
0,
0,
0,
0,
0,
0,
0,
0,
0,
0,
0,
0,
0,
0,
0,
0,
0,
0,
0,
0,
0,
0,
0,
0,
0,
0,
0,
0,
0,
0,
0,
0,
0,
0,
0,
0,
0,
0,
0,
0,
0,
0,
0,
0,
0,
0,
0,
0,
0,
0,
0,
0,
0,
0,
0,
0,
0,
0,
0,
0,
0,
0,
0,
0,
0,
0,
0,
0,
0,
0,
0,
0,
0,
0,
0,
0,
0,
0,
0,
0,
0,
0,
0,
0,
0,
0,
0,
0,
0,
0,
0,
0,
0,
0,
0,
0,
0,
0,
0,
0,
0,
0,
0,
0,
0,
0,
0,
0,
0,
0,
0,
0,
0,
0,
0,
0,
0,
#ENDOFDATA   :