File: N132962/Quantification/20 keV/Chucks Circular/CC Chuck's Circular Apatite[5][4].msa
#FORMAT      : EMSA/MAS Spectral Data File
#VERSION     : 1.0
#TITLE       : CC Chuck's Circular Apatite[5][all]
#DATE        : 09-SEP-2025
#TIME        : 11:54
#OWNER       : Unknown
#NPOINTS     : 4096
#NCOLUMNS    : 1
#XUNITS      : eV
#YUNITS      : counts
#DATATYPE    : Y
#XPERCHAN    : 9.99778
#OFFSET      : 1.69135
#BEAMKV      : 20
#SIGNALTYPE  : EDS
#ELEVANGLE   : 35
#AZIMANGLE   : 0
#LIVETIME    : 240.148
#REALTIME    : 259.368
#PROBECUR    : 1.24242
#TAUWIND     : 0
#TDEADLYR    : 0
#TACTLYR     : 0.045
#TALWIND     : 0.025
#CHOFFSET    : 0.0
#XLABEL      : Energy (eV)
#YLABEL      : Counts
#XPOSITION   : 11.38862
#YPOSITION   : -0.20034
#ZPOSITION   : 37.19848
#EDSDET      : SD
##SPECIMEN   : CC Chuck's Circular Apatite[5][all]
##DET_HASH   : 12273538-fd48-a23f-0a19-f1e6fa85caef
##CALIB_HASH : 6abaa72c-aa41-8738-0be9-f592914732f3
##WORKING    : 15.02 mm
##DET_NAME   : EDAX All
##DET_MODE   : MediumLE
#SPECTRUM    :
18,
282,
18628,
4095,
25575,
7713,
3680,
4059,
4613,
5848,
5767,
5888,
6979,
7333,
76757,
22726,
5020,
4209,
4277,
6355,
3994,
3492,
3566,
3453,
3346,
4476,
118405,
39817,
7773,
19750,
2343,
2063,
2215,
2464,
2165,
2248,
2142,
2016,
2035,
1822,
1850,
2022,
1640,
1695,
1510,
1539,
1586,
1437,
1350,
1206,
1212,
1261,
1217,
1410,
1168,
1102,
1073,
951,
972,
1010,
924,
892,
902,
809,
798,
739,
762,
724,
645,
653,
649,
610,
615,
599,
609,
624,
543,
513,
499,
458,
455,
447,
420,
435,
377,
396,
344,
353,
326,
336,
327,
279,
258,
283,
258,
257,
204,
229,
210,
200,
175,
185,
165,
175,
139,
157,
129,
125,
132,
116,
107,
109,
101,
81,
76,
80,
76,
68,
69,
62,
56,
46,
62,
38,
39,
41,
35,
25,
21,
22,
22,
23,
21,
14,
13,
8,
15,
14,
3,
2,
3,
2,
0,
1,
1,
0,
2,
0,
0,
0,
0,
0,
1,
1,
0,
0,
0,
0,
0,
0,
0,
0,
1,
0,
0,
1,
0,
0,
0,
0,
0,
0,
0,
0,
0,
0,
0,
0,
0,
0,
0,
0,
0,
0,
0,
0,
0,
1,
0,
0,
0,
0,
0,
0,
0,
0,
0,
0,
0,
0,
0,
0,
0,
0,
0,
0,
0,
0,
0,
0,
0,
0,
0,
0,
0,
0,
0,
0,
0,
0,
0,
0,
0,
0,
0,
0,
0,
0,
0,
0,
0,
0,
0,
0,
0,
0,
0,
0,
0,
0,
0,
0,
0,
0,
0,
0,
0,
0,
0,
0,
0,
0,
0,
0,
0,
0,
0,
0,
0,
0,
0,
0,
0,
0,
0,
0,
0,
0,
0,
0,
0,
0,
0,
0,
0,
0,
0,
0,
0,
0,
0,
0,
0,
0,
0,
0,
0,
0,
0,
0,
0,
0,
0,
0,
#ENDOFDATA   :