File: N132962/Quantification/20 keV/Chucks Circular/CC Chuck's Circular Apatite[4][4].msa
#FORMAT      : EMSA/MAS Spectral Data File
#VERSION     : 1.0
#TITLE       : CC Chuck's Circular Apatite[4][all]
#DATE        : 09-SEP-2025
#TIME        : 11:53
#OWNER       : Unknown
#NPOINTS     : 4096
#NCOLUMNS    : 1
#XUNITS      : eV
#YUNITS      : counts
#DATATYPE    : Y
#XPERCHAN    : 9.99778
#OFFSET      : 1.69135
#BEAMKV      : 20
#SIGNALTYPE  : EDS
#ELEVANGLE   : 35
#AZIMANGLE   : 0
#LIVETIME    : 240.147
#REALTIME    : 259.363
#PROBECUR    : 1.24242
#TAUWIND     : 0
#TDEADLYR    : 0
#TACTLYR     : 0.045
#TALWIND     : 0.025
#CHOFFSET    : 0.0
#XLABEL      : Energy (eV)
#YLABEL      : Counts
#XPOSITION   : 11.29931
#YPOSITION   : -0.14478
#ZPOSITION   : 37.19848
#EDSDET      : SD
##SPECIMEN   : CC Chuck's Circular Apatite[4][all]
##DET_HASH   : 12273538-fd48-a23f-0a19-f1e6fa85caef
##CALIB_HASH : 6abaa72c-aa41-8738-0be9-f592914732f3
##WORKING    : 15.02 mm
##DET_NAME   : EDAX All
##DET_MODE   : MediumLE
#SPECTRUM    :
26,
302,
19048,
4054,
25376,
7631,
3617,
4114,
4557,
5657,
5556,
5995,
6873,
7564,
76796,
22487,
4949,
4336,
4240,
6409,
3953,
3773,
3517,
3493,
3273,
4458,
118730,
39792,
7904,
19604,
2325,
2023,
2140,
2414,
2116,
2222,
2186,
2088,
2059,
1920,
1949,
2038,
1673,
1609,
1467,
1469,
1513,
1416,
1357,
1279,
1266,
1160,
1218,
1410,
1188,
1046,
1021,
990,
978,
974,
948,
831,
837,
829,
795,
773,
808,
675,
700,
671,
664,
610,
623,
636,
566,
616,
529,
532,
523,
473,
478,
423,
417,
410,
348,
335,
355,
331,
310,
300,
306,
287,
281,
280,
253,
236,
200,
183,
196,
214,
179,
190,
183,
172,
148,
142,
134,
131,
122,
107,
97,
108,
107,
94,
100,
86,
76,
61,
71,
54,
53,
45,
41,
52,
38,
36,
36,
27,
29,
24,
21,
18,
16,
16,
22,
12,
14,
5,
7,
4,
5,
2,
0,
0,
0,
1,
0,
0,
0,
1,
0,
2,
0,
0,
0,
1,
0,
0,
0,
0,
0,
0,
1,
0,
0,
1,
0,
0,
1,
0,
0,
0,
0,
0,
0,
0,
0,
0,
0,
1,
0,
0,
0,
0,
0,
0,
0,
1,
0,
0,
0,
0,
0,
0,
0,
0,
0,
0,
0,
0,
0,
0,
0,
0,
1,
0,
0,
0,
0,
0,
0,
0,
0,
0,
0,
0,
0,
0,
0,
0,
0,
0,
0,
0,
0,
0,
0,
0,
0,
0,
0,
0,
0,
0,
0,
0,
0,
0,
0,
0,
0,
0,
0,
0,
0,
0,
0,
0,
0,
0,
0,
0,
0,
0,
0,
0,
0,
0,
0,
0,
0,
0,
0,
0,
0,
0,
0,
0,
0,
0,
0,
0,
0,
0,
0,
0,
0,
0,
0,
0,
0,
0,
0,
0,
0,
0,
0,
0,
0,
0,
0,
0,
0,
0,
#ENDOFDATA   :