File: N132962/Quantification/20 keV/Chucks Circular/CC Chuck's Circular Apatite[0][4].msa
#FORMAT      : EMSA/MAS Spectral Data File
#VERSION     : 1.0
#TITLE       : CC Chuck's Circular Apatite[0][all]
#DATE        : 09-SEP-2025
#TIME        : 11:48
#OWNER       : Unknown
#NPOINTS     : 4096
#NCOLUMNS    : 1
#XUNITS      : eV
#YUNITS      : counts
#DATATYPE    : Y
#XPERCHAN    : 9.99778
#OFFSET      : 1.69135
#BEAMKV      : 20
#SIGNALTYPE  : EDS
#ELEVANGLE   : 35
#AZIMANGLE   : 0
#LIVETIME    : 240.128
#REALTIME    : 259.37
#PROBECUR    : 1.24242
#TAUWIND     : 0
#TDEADLYR    : 0
#TACTLYR     : 0.045
#TALWIND     : 0.025
#CHOFFSET    : 0.0
#XLABEL      : Energy (eV)
#YLABEL      : Counts
#XPOSITION   : 11.37076
#YPOSITION   : -0.1421
#ZPOSITION   : 37.19848
#EDSDET      : SD
##SPECIMEN   : CC Chuck's Circular Apatite[0][all]
##DET_HASH   : 12273538-fd48-a23f-0a19-f1e6fa85caef
##CALIB_HASH : 6abaa72c-aa41-8738-0be9-f592914732f3
##WORKING    : 15.02 mm
##DET_NAME   : EDAX All
##DET_MODE   : MediumLE
#SPECTRUM    :
27,
305,
18814,
4088,
25585,
7717,
3575,
4140,
4498,
5891,
5625,
5950,
6933,
7488,
76262,
22681,
4893,
4335,
4293,
6259,
3978,
3530,
3594,
3505,
3374,
4599,
119517,
39393,
7657,
19919,
2281,
2119,
2194,
2521,
2227,
2297,
2067,
2081,
2073,
1771,
1921,
2032,
1654,
1665,
1572,
1546,
1532,
1359,
1364,
1273,
1179,
1191,
1163,
1336,
1174,
1133,
971,
1025,
931,
945,
979,
859,
855,
780,
780,
746,
743,
702,
669,
679,
662,
654,
606,
617,
574,
649,
552,
540,
476,
463,
439,
464,
416,
403,
403,
394,
367,
369,
361,
286,
264,
286,
268,
251,
250,
253,
225,
201,
198,
198,
188,
163,
148,
140,
171,
130,
129,
131,
111,
108,
118,
99,
99,
93,
78,
72,
70,
68,
67,
62,
55,
67,
48,
42,
37,
19,
39,
28,
22,
20,
34,
26,
22,
15,
18,
22,
5,
13,
11,
7,
9,
5,
2,
0,
1,
1,
1,
1,
0,
1,
1,
1,
0,
0,
0,
1,
0,
0,
0,
0,
0,
0,
0,
0,
0,
0,
0,
0,
0,
0,
0,
0,
0,
0,
0,
0,
0,
0,
0,
1,
0,
0,
0,
0,
0,
0,
0,
0,
0,
0,
0,
0,
0,
0,
0,
0,
0,
0,
0,
0,
0,
0,
0,
0,
0,
0,
0,
0,
0,
0,
0,
0,
0,
0,
0,
0,
0,
0,
0,
0,
0,
0,
0,
0,
0,
0,
0,
0,
0,
0,
0,
0,
0,
0,
0,
0,
0,
0,
0,
0,
0,
0,
0,
0,
0,
0,
0,
0,
0,
0,
0,
0,
0,
0,
0,
0,
0,
0,
0,
0,
0,
0,
0,
0,
0,
0,
0,
0,
0,
0,
0,
0,
0,
0,
0,
0,
0,
0,
0,
0,
0,
0,
0,
0,
0,
0,
0,
0,
0,
0,
0,
0,
0,
0,
#ENDOFDATA   :