File: N132962/Quantification/20 keV/Chucks Circular/CC Marjabrite Olivine[0][4].msa
#FORMAT      : EMSA/MAS Spectral Data File
#VERSION     : 1.0
#TITLE       : CC Marjabrite Olivine[0][all]
#DATE        : 09-SEP-2025
#TIME        : 11:55
#OWNER       : Unknown
#NPOINTS     : 4096
#NCOLUMNS    : 1
#XUNITS      : eV
#YUNITS      : counts
#DATATYPE    : Y
#XPERCHAN    : 9.99778
#OFFSET      : 1.69135
#BEAMKV      : 20
#SIGNALTYPE  : EDS
#ELEVANGLE   : 35
#AZIMANGLE   : 0
#LIVETIME    : 240.119
#REALTIME    : 259.689
#PROBECUR    : 1.24242
#TAUWIND     : 0
#TDEADLYR    : 0
#TACTLYR     : 0.045
#TALWIND     : 0.025
#CHOFFSET    : 0.0
#XLABEL      : Energy (eV)
#YLABEL      : Counts
#XPOSITION   : 10.28713
#YPOSITION   : 6.33532
#ZPOSITION   : 37.19848
#EDSDET      : SD
##SPECIMEN   : CC Marjabrite Olivine[0][all]
##DET_HASH   : 12273538-fd48-a23f-0a19-f1e6fa85caef
##CALIB_HASH : 6abaa72c-aa41-8738-0be9-f592914732f3
##WORKING    : 15.02 mm
##DET_NAME   : EDAX All
##DET_MODE   : MediumLE
#SPECTRUM    :
20,
233,
5405,
9569,
85316,
11110,
3127,
4001,
6544,
262507,
3341,
4044,
47792,
23109,
2740,
2762,
3438,
2935,
3307,
2891,
2780,
3028,
2789,
2510,
2545,
2638,
2469,
2265,
2222,
2170,
1990,
1941,
2047,
1964,
1828,
1769,
1727,
1629,
1554,
1547,
1439,
1482,
1923,
1317,
1332,
5964,
16037,
1420,
1151,
1131,
2692,
1846,
924,
914,
891,
876,
855,
805,
787,
764,
709,
724,
685,
680,
616,
607,
596,
545,
508,
541,
519,
511,
458,
434,
451,
424,
409,
376,
398,
383,
378,
357,
337,
319,
321,
267,
282,
268,
227,
217,
228,
222,
217,
205,
206,
163,
171,
177,
154,
161,
143,
126,
123,
132,
121,
111,
88,
109,
107,
65,
88,
82,
59,
70,
69,
62,
68,
53,
53,
44,
58,
33,
41,
26,
35,
26,
17,
19,
17,
14,
16,
13,
14,
9,
12,
3,
9,
2,
8,
3,
1,
6,
1,
0,
0,
0,
0,
0,
1,
0,
0,
0,
0,
0,
0,
0,
0,
0,
0,
1,
0,
0,
1,
0,
0,
0,
0,
0,
1,
0,
0,
0,
0,
0,
0,
0,
0,
0,
0,
0,
0,
0,
0,
0,
0,
0,
0,
0,
0,
0,
0,
0,
0,
0,
0,
0,
0,
0,
1,
0,
0,
0,
0,
0,
0,
0,
0,
0,
0,
0,
0,
0,
0,
0,
0,
0,
0,
0,
0,
0,
0,
0,
0,
0,
0,
0,
0,
0,
0,
0,
0,
0,
0,
0,
0,
0,
0,
0,
0,
0,
0,
0,
0,
0,
0,
0,
0,
0,
0,
0,
0,
0,
0,
0,
0,
0,
0,
0,
0,
0,
0,
0,
0,
0,
0,
0,
0,
0,
0,
0,
0,
0,
0,
0,
0,
0,
0,
0,
0,
0,
0,
0,
0,
0,
0,
0,
0,
0,
0,
0,
0,
0,
0,
0,
#ENDOFDATA   :