File: N132962/Quantification/20 keV/Chucks Circular/CC Marjabrite Olivine[4][4].msa
#FORMAT      : EMSA/MAS Spectral Data File
#VERSION     : 1.0
#TITLE       : CC Marjabrite Olivine[4][all]
#DATE        : 09-SEP-2025
#TIME        : 12:00
#OWNER       : Unknown
#NPOINTS     : 4096
#NCOLUMNS    : 1
#XUNITS      : eV
#YUNITS      : counts
#DATATYPE    : Y
#XPERCHAN    : 9.99778
#OFFSET      : 1.69135
#BEAMKV      : 20
#SIGNALTYPE  : EDS
#ELEVANGLE   : 35
#AZIMANGLE   : 0
#LIVETIME    : 240.163
#REALTIME    : 259.75
#PROBECUR    : 1.24242
#TAUWIND     : 0
#TDEADLYR    : 0
#TACTLYR     : 0.045
#TALWIND     : 0.025
#CHOFFSET    : 0.0
#XLABEL      : Energy (eV)
#YLABEL      : Counts
#XPOSITION   : 10.31712
#YPOSITION   : 6.26781
#ZPOSITION   : 37.19848
#EDSDET      : SD
##SPECIMEN   : CC Marjabrite Olivine[4][all]
##DET_HASH   : 12273538-fd48-a23f-0a19-f1e6fa85caef
##CALIB_HASH : 6abaa72c-aa41-8738-0be9-f592914732f3
##WORKING    : 15.02 mm
##DET_NAME   : EDAX All
##DET_MODE   : MediumLE
#SPECTRUM    :
28,
222,
5331,
9545,
86150,
11021,
3179,
4132,
6715,
261531,
3466,
3865,
47754,
23774,
2711,
2875,
3512,
2897,
3331,
2896,
2862,
3074,
2736,
2607,
2468,
2561,
2312,
2292,
2181,
2150,
2049,
1931,
2063,
1881,
1765,
1726,
1708,
1623,
1593,
1556,
1453,
1359,
1953,
1368,
1287,
5835,
16007,
1370,
1116,
1155,
2703,
1942,
949,
877,
869,
874,
836,
815,
811,
777,
767,
683,
636,
666,
620,
589,
580,
561,
524,
526,
528,
466,
492,
466,
460,
432,
389,
376,
377,
405,
371,
375,
330,
301,
300,
286,
279,
241,
269,
214,
234,
204,
234,
229,
192,
188,
164,
191,
164,
139,
145,
138,
127,
135,
95,
99,
102,
69,
87,
74,
83,
83,
56,
69,
62,
50,
55,
49,
49,
43,
44,
41,
26,
35,
24,
31,
24,
23,
18,
20,
21,
13,
12,
7,
4,
8,
5,
4,
12,
6,
6,
2,
3,
1,
1,
0,
0,
0,
0,
0,
0,
1,
0,
0,
0,
0,
0,
0,
0,
0,
0,
0,
0,
0,
0,
0,
0,
0,
0,
0,
0,
0,
0,
0,
0,
0,
0,
0,
0,
0,
0,
0,
0,
0,
0,
0,
0,
0,
0,
0,
0,
0,
0,
0,
0,
0,
0,
0,
0,
0,
0,
0,
0,
0,
0,
0,
0,
0,
0,
0,
0,
0,
0,
0,
0,
0,
0,
0,
0,
0,
0,
0,
0,
0,
0,
0,
0,
0,
0,
0,
0,
0,
0,
0,
0,
0,
0,
0,
0,
0,
0,
0,
0,
0,
0,
0,
0,
0,
0,
0,
0,
0,
0,
0,
0,
0,
0,
0,
0,
0,
0,
0,
0,
0,
0,
0,
0,
0,
0,
0,
0,
0,
0,
0,
0,
0,
0,
0,
0,
0,
0,
0,
0,
0,
0,
0,
0,
0,
0,
0,
0,
0,
0,
0,
#ENDOFDATA   :