File: N132962/Quantification/20 keV/Chucks Circular/CC Shallowater Enstatite[5][4].msa
#FORMAT      : EMSA/MAS Spectral Data File
#VERSION     : 1.0
#TITLE       : CC Shallow Water Enstatite[5][all]
#DATE        : 09-SEP-2025
#TIME        : 12:08
#OWNER       : Unknown
#NPOINTS     : 4096
#NCOLUMNS    : 1
#XUNITS      : eV
#YUNITS      : counts
#DATATYPE    : Y
#XPERCHAN    : 9.99778
#OFFSET      : 1.69135
#BEAMKV      : 20
#SIGNALTYPE  : EDS
#ELEVANGLE   : 35
#AZIMANGLE   : 0
#LIVETIME    : 239.929
#REALTIME    : 260.193
#PROBECUR    : 1.24242
#TAUWIND     : 0
#TDEADLYR    : 0
#TACTLYR     : 0.045
#TALWIND     : 0.025
#CHOFFSET    : 0.0
#XLABEL      : Energy (eV)
#YLABEL      : Counts
#XPOSITION   : 10.58865
#YPOSITION   : 8.34719
#ZPOSITION   : 37.19848
#EDSDET      : SD
##SPECIMEN   : CC Shallow Water Enstatite[5][all]
##DET_HASH   : 12273538-fd48-a23f-0a19-f1e6fa85caef
##CALIB_HASH : 6abaa72c-aa41-8738-0be9-f592914732f3
##WORKING    : 15.02 mm
##DET_NAME   : EDAX All
##DET_MODE   : MediumLE
#SPECTRUM    :
32,
213,
5079,
8946,
85101,
2403,
3204,
4319,
6792,
247260,
3781,
4634,
75409,
35415,
2549,
2507,
3410,
2600,
3045,
2632,
2568,
3055,
2594,
2491,
2332,
2601,
2381,
2071,
1933,
2005,
1859,
1753,
1884,
1682,
1590,
1515,
1522,
1359,
1423,
1354,
1243,
1203,
1226,
1125,
1135,
1128,
1088,
1024,
1032,
882,
932,
854,
874,
835,
801,
692,
718,
670,
689,
722,
650,
592,
587,
622,
515,
504,
502,
489,
489,
494,
479,
419,
396,
410,
400,
351,
366,
370,
313,
315,
300,
294,
288,
280,
296,
227,
234,
252,
192,
226,
195,
174,
183,
162,
143,
152,
166,
142,
114,
121,
128,
132,
92,
109,
118,
93,
108,
77,
80,
66,
76,
64,
74,
54,
50,
49,
53,
47,
40,
34,
43,
38,
26,
29,
44,
26,
22,
19,
20,
19,
14,
12,
14,
11,
10,
5,
9,
6,
5,
2,
6,
2,
1,
1,
0,
0,
1,
0,
0,
0,
0,
0,
0,
0,
0,
0,
0,
0,
0,
0,
0,
0,
0,
0,
0,
0,
0,
0,
0,
0,
0,
0,
0,
0,
0,
0,
0,
0,
0,
0,
0,
1,
0,
0,
0,
0,
0,
0,
0,
0,
0,
0,
0,
0,
0,
0,
0,
0,
0,
0,
0,
0,
0,
0,
0,
0,
0,
0,
0,
0,
0,
0,
0,
0,
0,
0,
0,
0,
0,
0,
0,
0,
0,
0,
0,
0,
0,
0,
0,
0,
0,
0,
0,
0,
0,
0,
0,
0,
0,
0,
0,
0,
0,
0,
0,
0,
0,
0,
0,
0,
0,
0,
0,
0,
0,
0,
0,
0,
0,
0,
0,
0,
0,
0,
0,
0,
0,
0,
0,
0,
0,
0,
0,
0,
0,
0,
0,
0,
0,
0,
0,
0,
0,
0,
0,
0,
0,
0,
0,
0,
0,
0,
0,
0,
#ENDOFDATA   :