File: N132962/Quantification/15 keV/GMIIIA/GMIIIA K1010[8][4].msa
#FORMAT      : EMSA/MAS Spectral Data File
#VERSION     : 1.0
#TITLE       : GMIIIA K1010[8][all]
#DATE        : 22-SEP-2025
#TIME        : 21:40
#OWNER       : Unknown
#NPOINTS     : 4096
#NCOLUMNS    : 1
#XUNITS      : eV
#YUNITS      : counts
#DATATYPE    : Y
#XPERCHAN    : 9.99778
#OFFSET      : 1.69135
#BEAMKV      : 15
#SIGNALTYPE  : EDS
#ELEVANGLE   : 35
#AZIMANGLE   : 0
#LIVETIME    : 240.001
#REALTIME    : 256.239
#PROBECUR    : 1.21615
#TAUWIND     : 0
#TDEADLYR    : 0
#TACTLYR     : 0.045
#TALWIND     : 0.025
#CHOFFSET    : 0.0
#XLABEL      : Energy (eV)
#YLABEL      : Counts
#XPOSITION   : 8.8884
#YPOSITION   : 15.4788
#ZPOSITION   : 37.36299
#EDSDET      : SD
##SPECIMEN   : GMIIIA K1010[8][all]
##D2STDCMP   : K1010,(O:38.96),(Al:8.92),(Si:21.02),(K:1.87),(Ca:6.75),(Ge:1.56),(Rb:2.06),(Sr:10.05),(Te:0.9),(Cs:2.12),(La:1.92),(Eu:1.94),(Gd:1.95)
##DET_HASH   : 12273538-fd48-a23f-0a19-f1e6fa85caef
##CALIB_HASH : 6abaa72c-aa41-8738-0be9-f592914732f3
##WORKING    : 15.0 mm
##DET_NAME   : EDAX All
##DET_MODE   : MediumLE
#SPECTRUM    :
31,
276,
8224,
7996,
57376,
4178,
5636,
5820,
9143,
8079,
10692,
30700,
56576,
58750,
5517,
3132,
3681,
3283,
3103,
2937,
2882,
2924,
2740,
3551,
6759,
2791,
14561,
6565,
2672,
4024,
2481,
2882,
1929,
3743,
1932,
1854,
2171,
1681,
1698,
1528,
1387,
1536,
1985,
1950,
1278,
1153,
1486,
1150,
1350,
1152,
929,
1029,
864,
834,
815,
796,
721,
673,
662,
617,
640,
598,
595,
532,
552,
464,
443,
461,
428,
429,
538,
499,
385,
342,
355,
346,
315,
284,
261,
271,
236,
225,
191,
222,
173,
180,
179,
151,
150,
136,
104,
102,
115,
76,
108,
72,
60,
55,
55,
31,
42,
33,
23,
17,
20,
5,
7,
1,
0,
1,
1,
1,
0,
0,
0,
0,
1,
0,
0,
0,
1,
1,
1,
0,
1,
1,
0,
0,
0,
0,
2,
0,
0,
0,
0,
0,
0,
0,
0,
0,
0,
0,
0,
0,
0,
0,
1,
0,
0,
0,
0,
0,
0,
0,
1,
0,
0,
0,
0,
0,
0,
0,
0,
0,
0,
0,
0,
0,
0,
0,
0,
0,
0,
0,
0,
0,
0,
0,
0,
0,
0,
0,
0,
0,
0,
0,
0,
0,
0,
0,
0,
0,
0,
0,
0,
0,
0,
0,
0,
0,
0,
0,
0,
0,
0,
0,
0,
0,
0,
0,
0,
0,
0,
0,
0,
0,
0,
0,
0,
0,
0,
0,
0,
0,
0,
0,
0,
0,
0,
0,
0,
0,
0,
0,
0,
0,
0,
0,
0,
0,
0,
0,
0,
0,
0,
0,
0,
0,
0,
0,
0,
0,
0,
0,
0,
0,
0,
0,
0,
0,
0,
0,
0,
0,
0,
0,
0,
0,
0,
0,
0,
0,
0,
0,
0,
0,
0,
0,
0,
0,
0,
0,
0,
0,
0,
0,
0,
0,
0,
0,
0,
0,
0,
0,
#ENDOFDATA   :