File: N132962/Quantification/15 keV/GMIIIA/GMIIIA K230[3][4].msa
#FORMAT      : EMSA/MAS Spectral Data File
#VERSION     : 1.0
#TITLE       : GMIIIA K230[3][all]
#DATE        : 22-SEP-2025
#TIME        : 14:35
#OWNER       : Unknown
#NPOINTS     : 4096
#NCOLUMNS    : 1
#XUNITS      : eV
#YUNITS      : counts
#DATATYPE    : Y
#XPERCHAN    : 9.99778
#OFFSET      : 1.69135
#BEAMKV      : 15
#SIGNALTYPE  : EDS
#ELEVANGLE   : 35
#AZIMANGLE   : 0
#LIVETIME    : 239.837
#REALTIME    : 258.598
#PROBECUR    : 1.21983
#TAUWIND     : 0
#TDEADLYR    : 0
#TACTLYR     : 0.045
#TALWIND     : 0.025
#CHOFFSET    : 0.0
#XLABEL      : Energy (eV)
#YLABEL      : Counts
#XPOSITION   : 3.87183
#YPOSITION   : 0.88845
#ZPOSITION   : 37.36299
#EDSDET      : SD
##SPECIMEN   : GMIIIA K230[3][all]
##D2STDCMP   : K230,(O:24.49),(Al:2.65),(Si:14.02),(Zn:4.02),(Ba:8.96),(Ta:4.09),(Pb:41.77)
##DET_HASH   : 12273538-fd48-a23f-0a19-f1e6fa85caef
##CALIB_HASH : 6abaa72c-aa41-8738-0be9-f592914732f3
##WORKING    : 15.0 mm
##DET_NAME   : EDAX All
##DET_MODE   : MediumLE
#SPECTRUM    :
23,
492,
12792,
9142,
43995,
7737,
7552,
17207,
7990,
7969,
9465,
15309,
48072,
28444,
7637,
6625,
11177,
68704,
13231,
8251,
4437,
4636,
5468,
4357,
4260,
4191,
3914,
3827,
3928,
3808,
3637,
3945,
11382,
3340,
4699,
5108,
3323,
4149,
2930,
2991,
2877,
2688,
2578,
2411,
2357,
2332,
2297,
2152,
2116,
2022,
1939,
1912,
1833,
1780,
1772,
1591,
1633,
1559,
2043,
1543,
1398,
1973,
2427,
1259,
1202,
1152,
1209,
1213,
1274,
1234,
963,
907,
881,
845,
868,
1477,
1059,
681,
671,
589,
589,
590,
547,
486,
479,
433,
470,
403,
410,
378,
457,
323,
270,
269,
209,
216,
193,
171,
153,
133,
113,
84,
70,
65,
55,
44,
23,
10,
1,
3,
2,
2,
2,
0,
2,
2,
1,
0,
1,
0,
0,
3,
0,
2,
2,
0,
0,
0,
0,
0,
3,
0,
0,
0,
2,
1,
2,
0,
0,
1,
0,
0,
0,
1,
0,
0,
0,
0,
0,
0,
0,
2,
0,
1,
0,
0,
0,
0,
0,
0,
0,
0,
0,
0,
0,
0,
0,
0,
0,
0,
0,
0,
0,
0,
0,
0,
0,
0,
0,
0,
0,
0,
0,
0,
0,
0,
0,
0,
0,
0,
0,
0,
0,
0,
0,
0,
0,
0,
0,
0,
0,
0,
0,
0,
0,
0,
0,
0,
0,
0,
0,
0,
0,
0,
0,
0,
0,
0,
0,
0,
0,
0,
0,
0,
0,
0,
0,
0,
0,
0,
0,
0,
0,
0,
0,
0,
0,
0,
0,
0,
0,
0,
0,
0,
0,
0,
0,
0,
0,
0,
0,
0,
0,
0,
0,
0,
0,
0,
0,
0,
0,
0,
0,
0,
0,
0,
0,
0,
0,
0,
0,
0,
0,
0,
0,
0,
0,
0,
0,
0,
0,
0,
0,
0,
0,
0,
0,
0,
0,
0,
0,
0,
0,
0,
#ENDOFDATA   :