File: N132962/Quantification/15 keV/GMIIIA/GMIIIA K253[2][4].msa
#FORMAT      : EMSA/MAS Spectral Data File
#VERSION     : 1.0
#TITLE       : GMIIIA K253[2][all]
#DATE        : 22-SEP-2025
#TIME        : 14:42
#OWNER       : Unknown
#NPOINTS     : 4096
#NCOLUMNS    : 1
#XUNITS      : eV
#YUNITS      : counts
#DATATYPE    : Y
#XPERCHAN    : 9.99778
#OFFSET      : 1.69135
#BEAMKV      : 15
#SIGNALTYPE  : EDS
#ELEVANGLE   : 35
#AZIMANGLE   : 0
#LIVETIME    : 239.8805
#REALTIME    : 257.014
#PROBECUR    : 1.21983
#TAUWIND     : 0
#TDEADLYR    : 0
#TACTLYR     : 0.045
#TALWIND     : 0.025
#CHOFFSET    : 0.0
#XLABEL      : Energy (eV)
#YLABEL      : Counts
#XPOSITION   : 2.58879
#YPOSITION   : 2.34207
#ZPOSITION   : 37.36299
#EDSDET      : SD
##SPECIMEN   : GMIIIA K253[2][all]
##D2STDCMP   : K253,(O:31.64),(Si:18.7),(Mn:6.32),(Co:1.97),(Cu:2.0),(Zn:8.03),(Ba:31.35)
##DET_HASH   : 12273538-fd48-a23f-0a19-f1e6fa85caef
##CALIB_HASH : 6abaa72c-aa41-8738-0be9-f592914732f3
##WORKING    : 15.0 mm
##DET_NAME   : EDAX All
##DET_MODE   : MediumLE
#SPECTRUM    :
25,
375,
9238,
12368,
81022,
7864,
7894,
24658,
5654,
5065,
5372,
6381,
42735,
21740,
4404,
4403,
4825,
4304,
4213,
4216,
4033,
3748,
3783,
3503,
3425,
3358,
3108,
3124,
3853,
3073,
2864,
4633,
31381,
2848,
7683,
10057,
3181,
6484,
2060,
2655,
2816,
2420,
9710,
2350,
1602,
1538,
2214,
1679,
1388,
2175,
1949,
1211,
1258,
1081,
1197,
1248,
1028,
1622,
1420,
929,
946,
2007,
2816,
942,
949,
746,
700,
664,
989,
771,
587,
575,
576,
487,
527,
477,
465,
448,
382,
386,
347,
381,
329,
340,
316,
278,
271,
253,
247,
206,
191,
182,
153,
153,
146,
141,
119,
93,
111,
74,
66,
52,
51,
35,
24,
16,
8,
4,
1,
1,
3,
0,
0,
1,
1,
0,
1,
1,
0,
1,
2,
0,
3,
0,
1,
0,
0,
2,
0,
2,
0,
0,
0,
1,
3,
0,
0,
0,
0,
1,
0,
0,
0,
0,
0,
0,
0,
0,
0,
0,
0,
1,
0,
0,
0,
0,
0,
0,
0,
0,
0,
0,
0,
0,
0,
0,
0,
0,
0,
0,
0,
0,
0,
0,
0,
0,
0,
0,
0,
0,
0,
0,
0,
0,
0,
0,
0,
0,
0,
0,
0,
0,
0,
0,
0,
0,
0,
0,
0,
0,
0,
0,
0,
0,
0,
0,
0,
0,
0,
0,
0,
0,
0,
0,
0,
0,
0,
0,
0,
0,
0,
0,
0,
0,
0,
0,
0,
0,
0,
0,
0,
0,
0,
0,
0,
0,
0,
0,
0,
0,
0,
0,
0,
0,
0,
0,
0,
0,
0,
0,
0,
0,
0,
0,
0,
0,
0,
0,
0,
0,
0,
0,
0,
0,
0,
0,
0,
0,
0,
0,
0,
0,
0,
0,
0,
0,
0,
0,
0,
0,
0,
0,
0,
0,
0,
0,
0,
0,
0,
0,
0,
0,
0,
0,
#ENDOFDATA   :