File: N132962/Quantification/15 keV/GMIIIA/GMIIIA K229[5][4].msa
#FORMAT      : EMSA/MAS Spectral Data File
#VERSION     : 1.0
#TITLE       : GMIIIA K229[5][all]
#DATE        : 22-SEP-2025
#TIME        : 14:29
#OWNER       : Unknown
#NPOINTS     : 4096
#NCOLUMNS    : 1
#XUNITS      : eV
#YUNITS      : counts
#DATATYPE    : Y
#XPERCHAN    : 9.99778
#OFFSET      : 1.69135
#BEAMKV      : 15
#SIGNALTYPE  : EDS
#ELEVANGLE   : 35
#AZIMANGLE   : 0
#LIVETIME    : 239.928
#REALTIME    : 260.147
#PROBECUR    : 1.21983
#TAUWIND     : 0
#TDEADLYR    : 0
#TACTLYR     : 0.045
#TALWIND     : 0.025
#CHOFFSET    : 0.0
#XLABEL      : Energy (eV)
#YLABEL      : Counts
#XPOSITION   : 5.93064
#YPOSITION   : 0.74389
#ZPOSITION   : 37.36299
#EDSDET      : SD
##SPECIMEN   : GMIIIA K229[5][all]
##D2STDCMP   : K229,(O:20.99),(Si:14.02),(Pb:64.98)
##DET_HASH   : 12273538-fd48-a23f-0a19-f1e6fa85caef
##CALIB_HASH : 6abaa72c-aa41-8738-0be9-f592914732f3
##WORKING    : 15.0 mm
##DET_NAME   : EDAX All
##DET_MODE   : MediumLE
#SPECTRUM    :
22,
623,
13246,
8380,
33556,
8460,
7391,
8029,
8589,
9287,
9648,
10140,
44773,
32950,
7635,
7844,
15489,
115288,
19666,
10559,
4767,
5398,
6231,
4825,
4423,
4439,
4319,
4255,
3901,
4185,
3949,
3878,
3988,
3748,
3810,
3580,
3451,
3293,
3272,
3135,
3054,
3021,
2923,
2736,
2735,
2728,
2736,
2589,
2463,
2386,
2294,
2339,
2133,
2108,
2076,
1982,
1918,
1964,
1765,
1701,
1654,
1603,
1519,
1496,
1441,
1444,
1439,
1348,
1246,
1227,
1170,
1086,
1075,
1052,
1075,
2133,
1528,
938,
835,
817,
743,
724,
677,
617,
586,
565,
557,
491,
470,
444,
636,
458,
382,
323,
290,
268,
225,
201,
180,
154,
139,
149,
137,
94,
67,
47,
26,
9,
3,
2,
3,
1,
1,
0,
0,
2,
0,
1,
3,
1,
1,
0,
0,
1,
2,
1,
3,
0,
1,
2,
0,
0,
2,
1,
0,
0,
1,
1,
2,
0,
0,
0,
0,
0,
1,
0,
0,
0,
1,
0,
0,
0,
1,
1,
0,
0,
0,
0,
0,
0,
0,
0,
0,
0,
0,
0,
0,
0,
0,
0,
0,
0,
0,
0,
0,
0,
0,
0,
0,
0,
0,
0,
0,
0,
0,
0,
0,
0,
0,
0,
0,
0,
0,
0,
0,
0,
0,
0,
0,
0,
0,
0,
0,
0,
0,
0,
0,
0,
0,
0,
0,
0,
0,
0,
0,
0,
0,
0,
0,
0,
0,
0,
0,
0,
0,
0,
0,
0,
0,
0,
0,
0,
0,
0,
0,
0,
0,
0,
0,
0,
0,
0,
0,
0,
0,
0,
0,
0,
0,
0,
0,
0,
0,
0,
0,
0,
0,
0,
0,
0,
0,
0,
0,
0,
0,
0,
0,
0,
0,
0,
0,
0,
0,
0,
0,
0,
0,
0,
0,
0,
0,
0,
0,
0,
0,
0,
0,
0,
0,
0,
0,
0,
0,
0,
#ENDOFDATA   :