File: N132962/Quantification/15 keV/GMIIIA/GMIIIA K251[6][4].msa
#FORMAT      : EMSA/MAS Spectral Data File
#VERSION     : 1.0
#TITLE       : GMIIIA K251[6][all]
#DATE        : 22-SEP-2025
#TIME        : 15:02
#OWNER       : Unknown
#NPOINTS     : 4096
#NCOLUMNS    : 1
#XUNITS      : eV
#YUNITS      : counts
#DATATYPE    : Y
#XPERCHAN    : 9.99778
#OFFSET      : 1.69135
#BEAMKV      : 15
#SIGNALTYPE  : EDS
#ELEVANGLE   : 35
#AZIMANGLE   : 0
#LIVETIME    : 239.973
#REALTIME    : 259.185
#PROBECUR    : 1.21732
#TAUWIND     : 0
#TDEADLYR    : 0
#TACTLYR     : 0.045
#TALWIND     : 0.025
#CHOFFSET    : 0.0
#XLABEL      : Energy (eV)
#YLABEL      : Counts
#XPOSITION   : 7.04616
#YPOSITION   : 2.48686
#ZPOSITION   : 37.36299
#EDSDET      : SD
##SPECIMEN   : GMIIIA K251[6][all]
##D2STDCMP   : K251,(O:23.02),(Al:1.32),(Si:14.02),(Ba:8.96),(Ta:4.09),(Pb:44.1),(Bi:4.48)
##DET_HASH   : 12273538-fd48-a23f-0a19-f1e6fa85caef
##CALIB_HASH : 6abaa72c-aa41-8738-0be9-f592914732f3
##WORKING    : 15.0 mm
##DET_NAME   : EDAX All
##DET_MODE   : MediumLE
#SPECTRUM    :
31,
565,
12468,
9241,
39873,
7932,
7362,
7961,
7961,
8690,
9756,
12799,
50735,
30077,
7268,
6779,
12056,
78861,
18949,
8781,
4791,
4894,
5713,
4705,
4236,
4284,
4179,
4017,
4169,
4009,
3755,
4213,
11589,
3588,
4856,
5507,
3505,
4585,
3108,
3058,
3090,
2932,
2676,
2607,
2533,
2482,
2501,
2379,
2225,
2165,
2156,
2057,
1978,
1910,
1923,
1808,
1786,
1736,
2300,
1707,
1554,
1588,
1414,
1370,
1340,
1340,
1356,
1417,
1159,
1260,
1109,
1079,
971,
926,
968,
1584,
1161,
849,
805,
731,
669,
653,
611,
610,
504,
482,
481,
451,
405,
416,
523,
384,
332,
292,
300,
224,
192,
183,
189,
149,
148,
102,
96,
76,
51,
45,
27,
13,
2,
2,
5,
3,
2,
5,
1,
1,
0,
3,
0,
0,
0,
0,
1,
1,
2,
1,
0,
1,
3,
0,
1,
1,
0,
0,
0,
0,
1,
0,
0,
0,
1,
1,
0,
0,
0,
0,
0,
0,
0,
0,
0,
0,
0,
0,
0,
0,
0,
0,
0,
0,
1,
0,
0,
1,
0,
0,
0,
0,
0,
0,
0,
0,
0,
0,
0,
0,
0,
0,
0,
0,
0,
0,
0,
0,
0,
0,
0,
0,
0,
0,
0,
0,
0,
0,
0,
0,
0,
0,
0,
0,
0,
0,
0,
0,
0,
0,
0,
0,
0,
0,
0,
0,
0,
0,
0,
0,
0,
0,
0,
0,
0,
0,
0,
0,
0,
0,
0,
0,
0,
0,
0,
0,
0,
0,
0,
0,
0,
0,
0,
0,
0,
0,
0,
0,
0,
0,
0,
0,
0,
0,
0,
0,
0,
0,
0,
0,
0,
0,
0,
0,
0,
0,
0,
0,
0,
0,
0,
0,
0,
0,
0,
0,
0,
0,
0,
0,
0,
0,
0,
0,
0,
0,
0,
0,
0,
0,
0,
0,
0,
0,
0,
0,
0,
0,
#ENDOFDATA   :