File: N132962/Quantification/15 keV/GMIIIA/GMIIIA K1012[2][4].msa
#FORMAT      : EMSA/MAS Spectral Data File
#VERSION     : 1.0
#TITLE       : GMIIIA K1012[2][all]
#DATE        : 22-SEP-2025
#TIME        : 21:23
#OWNER       : Unknown
#NPOINTS     : 4096
#NCOLUMNS    : 1
#XUNITS      : eV
#YUNITS      : counts
#DATATYPE    : Y
#XPERCHAN    : 9.99778
#OFFSET      : 1.69135
#BEAMKV      : 15
#SIGNALTYPE  : EDS
#ELEVANGLE   : 35
#AZIMANGLE   : 0
#LIVETIME    : 239.929
#REALTIME    : 256.6039
#PROBECUR    : 1.21822
#TAUWIND     : 0
#TDEADLYR    : 0
#TACTLYR     : 0.045
#TALWIND     : 0.025
#CHOFFSET    : 0.0
#XLABEL      : Energy (eV)
#YLABEL      : Counts
#XPOSITION   : 6.80631
#YPOSITION   : 15.45149
#ZPOSITION   : 37.36299
#EDSDET      : SD
##SPECIMEN   : GMIIIA K1012[2][all]
##D2STDCMP   : K1012,(O:39.34),(Na:1.48),(Mg:9.05),(Al:7.94),(Si:18.7),(P:0.63),(K:1.66),(Ca:0.4),(Ga:1.49),(Se:0.71),(In:1.65),(Cs:1.89),(Ba:13.43),(Ce:1.63)
##DET_HASH   : 12273538-fd48-a23f-0a19-f1e6fa85caef
##CALIB_HASH : 6abaa72c-aa41-8738-0be9-f592914732f3
##WORKING    : 15.0 mm
##DET_NAME   : EDAX All
##DET_MODE   : MediumLE
#SPECTRUM    :
26,
307,
7496,
10934,
83281,
4623,
5104,
8423,
11585,
66047,
8300,
22915,
43108,
21429,
4743,
3436,
3534,
3156,
3027,
3008,
2861,
2824,
2687,
4187,
7295,
3464,
3574,
2573,
2566,
2133,
2458,
3540,
11635,
2609,
3951,
4844,
1826,
3086,
1889,
1621,
1782,
1426,
1267,
1162,
1070,
1078,
1036,
940,
926,
900,
860,
868,
807,
785,
737,
746,
653,
622,
598,
638,
529,
573,
550,
483,
500,
508,
815,
476,
397,
408,
408,
375,
376,
354,
342,
323,
289,
255,
253,
243,
252,
206,
200,
197,
160,
158,
138,
138,
143,
135,
112,
112,
97,
102,
74,
80,
58,
71,
45,
39,
32,
34,
31,
20,
13,
19,
6,
2,
0,
0,
1,
0,
0,
0,
0,
1,
1,
0,
0,
0,
0,
0,
1,
0,
0,
0,
0,
0,
0,
0,
0,
0,
0,
0,
1,
0,
0,
0,
0,
0,
0,
0,
1,
0,
0,
0,
0,
0,
0,
0,
0,
0,
0,
0,
0,
0,
0,
0,
0,
0,
0,
0,
0,
0,
0,
0,
0,
0,
0,
0,
0,
0,
0,
0,
0,
0,
0,
0,
0,
0,
0,
0,
0,
0,
0,
0,
0,
0,
0,
0,
0,
0,
0,
0,
0,
0,
0,
0,
0,
0,
0,
0,
0,
0,
0,
0,
0,
0,
0,
0,
0,
0,
0,
0,
0,
0,
0,
0,
0,
0,
0,
0,
0,
0,
0,
0,
0,
0,
0,
0,
0,
0,
0,
0,
0,
0,
0,
0,
0,
0,
0,
0,
0,
0,
0,
0,
0,
0,
0,
0,
0,
0,
0,
0,
0,
0,
0,
0,
0,
0,
0,
0,
0,
0,
0,
0,
0,
0,
0,
0,
0,
0,
0,
0,
0,
0,
0,
0,
0,
0,
0,
0,
0,
0,
0,
0,
0,
0,
0,
0,
0,
0,
0,
0,
#ENDOFDATA   :