File: N132962/Quantification/15 keV/GMIIIA/GMIIIA K240[4][4].msa
#FORMAT      : EMSA/MAS Spectral Data File
#VERSION     : 1.0
#TITLE       : GMIIIA K240[4][all]
#DATE        : 22-SEP-2025
#TIME        : 15:16
#OWNER       : Unknown
#NPOINTS     : 4096
#NCOLUMNS    : 1
#XUNITS      : eV
#YUNITS      : counts
#DATATYPE    : Y
#XPERCHAN    : 9.99778
#OFFSET      : 1.69135
#BEAMKV      : 15
#SIGNALTYPE  : EDS
#ELEVANGLE   : 35
#AZIMANGLE   : 0
#LIVETIME    : 239.955
#REALTIME    : 256.037
#PROBECUR    : 1.21681
#TAUWIND     : 0
#TDEADLYR    : 0
#TACTLYR     : 0.045
#TALWIND     : 0.025
#CHOFFSET    : 0.0
#XLABEL      : Energy (eV)
#YLABEL      : Counts
#XPOSITION   : 11.36031
#YPOSITION   : 1.6868
#ZPOSITION   : 37.36299
#EDSDET      : SD
##SPECIMEN   : GMIIIA K240[4][all]
##D2STDCMP   : K240,(O:34.0),(Mg:3.02),(Si:18.7),(Ti:6.0),(Zn:4.02),(Zr:7.4),(Ba:26.87)
##DET_HASH   : 12273538-fd48-a23f-0a19-f1e6fa85caef
##CALIB_HASH : 6abaa72c-aa41-8738-0be9-f592914732f3
##WORKING    : 15.0 mm
##DET_NAME   : EDAX All
##DET_MODE   : MediumLE
#SPECTRUM    :
36,
440,
9208,
13846,
63812,
5341,
5990,
14747,
5803,
23059,
5566,
6283,
44390,
23479,
6914,
14984,
5495,
3944,
4016,
3831,
3667,
3640,
3435,
3331,
3182,
3148,
3016,
2856,
3445,
2809,
2648,
4150,
36999,
3871,
6643,
9947,
3068,
5626,
1856,
2448,
2375,
1950,
1795,
1542,
1414,
1413,
1339,
1302,
1274,
1278,
1160,
1162,
1113,
1077,
1013,
1007,
989,
926,
894,
839,
827,
1359,
1708,
710,
710,
699,
694,
650,
787,
635,
560,
490,
546,
486,
467,
432,
414,
416,
390,
358,
333,
288,
303,
289,
274,
249,
229,
219,
173,
191,
186,
141,
148,
118,
127,
103,
82,
92,
82,
59,
51,
56,
43,
27,
23,
16,
5,
4,
2,
2,
1,
2,
3,
1,
0,
0,
0,
1,
0,
0,
2,
0,
1,
0,
0,
0,
0,
0,
1,
0,
0,
0,
2,
1,
0,
0,
0,
0,
0,
0,
0,
0,
0,
0,
0,
0,
0,
0,
0,
0,
0,
0,
0,
0,
0,
0,
0,
0,
0,
0,
0,
0,
0,
0,
0,
0,
0,
0,
0,
0,
0,
0,
0,
0,
0,
0,
0,
0,
0,
0,
0,
0,
0,
0,
0,
0,
0,
0,
0,
0,
0,
0,
0,
0,
0,
0,
0,
0,
0,
0,
0,
0,
0,
0,
0,
0,
0,
0,
0,
0,
0,
0,
0,
0,
0,
0,
0,
0,
0,
0,
0,
0,
0,
0,
0,
0,
0,
0,
0,
0,
0,
0,
0,
0,
0,
0,
0,
0,
0,
0,
0,
0,
0,
0,
0,
0,
0,
0,
0,
0,
0,
0,
0,
0,
0,
0,
0,
0,
0,
0,
0,
0,
0,
0,
0,
0,
0,
0,
0,
0,
0,
0,
0,
0,
0,
0,
0,
0,
0,
0,
0,
0,
0,
0,
0,
0,
0,
0,
0,
0,
0,
0,
0,
0,
#ENDOFDATA   :