File: N132962/Quantification/15 keV/GMIIIA/GMIIIA K249[1][4].msa
#FORMAT      : EMSA/MAS Spectral Data File
#VERSION     : 1.0
#TITLE       : GMIIIA K249[1][all]
#DATE        : 22-SEP-2025
#TIME        : 15:05
#OWNER       : Unknown
#NPOINTS     : 4096
#NCOLUMNS    : 1
#XUNITS      : eV
#YUNITS      : counts
#DATATYPE    : Y
#XPERCHAN    : 9.99778
#OFFSET      : 1.69135
#BEAMKV      : 15
#SIGNALTYPE  : EDS
#ELEVANGLE   : 35
#AZIMANGLE   : 0
#LIVETIME    : 239.944
#REALTIME    : 258.919
#PROBECUR    : 1.21732
#TAUWIND     : 0
#TDEADLYR    : 0
#TACTLYR     : 0.045
#TALWIND     : 0.025
#CHOFFSET    : 0.0
#XLABEL      : Energy (eV)
#YLABEL      : Counts
#XPOSITION   : 9.13831
#YPOSITION   : 2.23338
#ZPOSITION   : 37.36299
#EDSDET      : SD
##SPECIMEN   : GMIIIA K249[1][all]
##D2STDCMP   : K249,(O:24.49),(Al:2.65),(Si:14.02),(Ba:8.96),(Ta:8.19),(Pb:39.45),(Bi:2.24)
##DET_HASH   : 12273538-fd48-a23f-0a19-f1e6fa85caef
##CALIB_HASH : 6abaa72c-aa41-8738-0be9-f592914732f3
##WORKING    : 15.0 mm
##DET_NAME   : EDAX All
##DET_MODE   : MediumLE
#SPECTRUM    :
24,
547,
11608,
9319,
42673,
7405,
7282,
8038,
7851,
8616,
10334,
16399,
58212,
30483,
7218,
6359,
11139,
67678,
14889,
8141,
4613,
4784,
5329,
4386,
4168,
4262,
3889,
3871,
4107,
3793,
3716,
4118,
11389,
3526,
4771,
5576,
3494,
4220,
3018,
3010,
2964,
2768,
2633,
2553,
2357,
2335,
2297,
2209,
2106,
2079,
1977,
1981,
2009,
1873,
1833,
1691,
1813,
1701,
2922,
1806,
1425,
1384,
1303,
1301,
1297,
1261,
1375,
1460,
1207,
1243,
1040,
986,
937,
909,
911,
1484,
1062,
830,
803,
693,
669,
587,
525,
576,
534,
489,
449,
444,
392,
398,
438,
351,
310,
285,
219,
202,
188,
184,
164,
137,
129,
119,
94,
79,
60,
38,
30,
8,
1,
3,
3,
1,
2,
2,
4,
2,
0,
1,
0,
0,
3,
0,
1,
1,
3,
3,
0,
0,
1,
1,
0,
1,
1,
0,
0,
0,
0,
0,
1,
0,
1,
1,
0,
0,
0,
0,
0,
1,
0,
0,
1,
0,
0,
0,
0,
0,
1,
1,
0,
1,
0,
0,
0,
0,
0,
0,
0,
0,
0,
0,
0,
0,
0,
0,
0,
0,
0,
0,
0,
0,
0,
0,
0,
0,
0,
0,
0,
0,
0,
0,
0,
0,
0,
0,
0,
0,
0,
0,
0,
0,
0,
0,
0,
0,
0,
0,
0,
0,
0,
0,
0,
0,
0,
0,
0,
0,
0,
0,
0,
0,
0,
0,
0,
0,
0,
0,
0,
0,
0,
0,
0,
0,
0,
0,
0,
0,
0,
0,
0,
0,
0,
0,
0,
0,
0,
0,
0,
0,
0,
0,
0,
0,
0,
0,
0,
0,
0,
0,
0,
0,
0,
0,
0,
0,
0,
0,
0,
0,
0,
0,
0,
0,
0,
0,
0,
0,
0,
0,
0,
0,
0,
0,
0,
0,
0,
0,
0,
0,
0,
0,
0,
0,
0,
0,
#ENDOFDATA   :