File: N132962/Quantification/15 keV/GMIIIA/GMIIIA K240[0][4].msa
#FORMAT      : EMSA/MAS Spectral Data File
#VERSION     : 1.0
#TITLE       : GMIIIA K240[0][all]
#DATE        : 22-SEP-2025
#TIME        : 15:12
#OWNER       : Unknown
#NPOINTS     : 4096
#NCOLUMNS    : 1
#XUNITS      : eV
#YUNITS      : counts
#DATATYPE    : Y
#XPERCHAN    : 9.99778
#OFFSET      : 1.69135
#BEAMKV      : 15
#SIGNALTYPE  : EDS
#ELEVANGLE   : 35
#AZIMANGLE   : 0
#LIVETIME    : 239.964
#REALTIME    : 256.035
#PROBECUR    : 1.21732
#TAUWIND     : 0
#TDEADLYR    : 0
#TACTLYR     : 0.045
#TALWIND     : 0.025
#CHOFFSET    : 0.0
#XLABEL      : Energy (eV)
#YLABEL      : Counts
#XPOSITION   : 11.36222
#YPOSITION   : 1.6927
#ZPOSITION   : 37.36299
#EDSDET      : SD
##SPECIMEN   : GMIIIA K240[0][all]
##D2STDCMP   : K240,(O:34.0),(Mg:3.02),(Si:18.7),(Ti:6.0),(Zn:4.02),(Zr:7.4),(Ba:26.87)
##DET_HASH   : 12273538-fd48-a23f-0a19-f1e6fa85caef
##CALIB_HASH : 6abaa72c-aa41-8738-0be9-f592914732f3
##WORKING    : 15.0 mm
##DET_NAME   : EDAX All
##DET_MODE   : MediumLE
#SPECTRUM    :
29,
400,
9041,
13714,
64051,
5163,
5940,
14678,
5665,
23002,
5636,
6238,
44231,
23292,
7024,
15263,
5366,
3966,
4043,
3915,
3770,
3475,
3445,
3349,
3069,
3193,
2912,
2818,
3450,
2742,
2638,
4188,
37248,
3928,
6617,
10037,
3011,
5556,
1945,
2429,
2443,
1907,
1835,
1651,
1365,
1374,
1386,
1314,
1249,
1227,
1230,
1165,
1149,
1070,
1027,
1054,
985,
920,
896,
886,
912,
1313,
1684,
725,
687,
726,
649,
679,
800,
689,
585,
553,
523,
466,
479,
428,
437,
385,
386,
372,
364,
334,
311,
319,
287,
225,
228,
212,
197,
196,
162,
160,
143,
138,
119,
115,
108,
76,
52,
63,
59,
43,
41,
34,
29,
22,
9,
4,
1,
1,
3,
2,
0,
0,
0,
4,
0,
1,
0,
0,
0,
1,
1,
1,
2,
0,
0,
1,
0,
1,
0,
0,
0,
0,
0,
0,
0,
0,
0,
1,
0,
0,
0,
0,
0,
0,
0,
0,
0,
0,
0,
1,
0,
0,
0,
0,
0,
0,
0,
0,
0,
0,
0,
0,
0,
0,
0,
0,
0,
0,
0,
0,
0,
0,
0,
0,
0,
0,
0,
0,
0,
0,
0,
0,
0,
0,
0,
0,
0,
0,
0,
0,
0,
0,
0,
0,
0,
0,
0,
0,
0,
0,
0,
0,
0,
0,
0,
0,
0,
0,
0,
0,
0,
0,
0,
0,
0,
0,
0,
0,
0,
0,
0,
0,
0,
0,
0,
0,
0,
0,
0,
0,
0,
0,
0,
0,
0,
0,
0,
0,
0,
0,
0,
0,
0,
0,
0,
0,
0,
0,
0,
0,
0,
0,
0,
0,
0,
0,
0,
0,
0,
0,
0,
0,
0,
0,
0,
0,
0,
0,
0,
0,
0,
0,
0,
0,
0,
0,
0,
0,
0,
0,
0,
0,
0,
0,
0,
0,
0,
0,
0,
0,
0,
0,
#ENDOFDATA   :