File: N132962/Quantification/15 keV/GMIIIA/GMIIIA K252[2][4].msa
#FORMAT      : EMSA/MAS Spectral Data File
#VERSION     : 1.0
#TITLE       : GMIIIA K252[2][all]
#DATE        : 22-SEP-2025
#TIME        : 14:50
#OWNER       : Unknown
#NPOINTS     : 4096
#NCOLUMNS    : 1
#XUNITS      : eV
#YUNITS      : counts
#DATATYPE    : Y
#XPERCHAN    : 9.99778
#OFFSET      : 1.69135
#BEAMKV      : 15
#SIGNALTYPE  : EDS
#ELEVANGLE   : 35
#AZIMANGLE   : 0
#LIVETIME    : 239.9906
#REALTIME    : 257.13
#PROBECUR    : 1.21732
#TAUWIND     : 0
#TDEADLYR    : 0
#TACTLYR     : 0.045
#TALWIND     : 0.025
#CHOFFSET    : 0.0
#XLABEL      : Energy (eV)
#YLABEL      : Counts
#XPOSITION   : 4.68511
#YPOSITION   : 2.64043
#ZPOSITION   : 37.36299
#EDSDET      : SD
##SPECIMEN   : GMIIIA K252[2][all]
##D2STDCMP   : K252,(O:30.83),(Si:18.7),(Mn:3.16),(Co:3.93),(Cu:3.99),(Zn:8.03),(Ba:31.35)
##DET_HASH   : 12273538-fd48-a23f-0a19-f1e6fa85caef
##CALIB_HASH : 6abaa72c-aa41-8738-0be9-f592914732f3
##WORKING    : 15.0 mm
##DET_NAME   : EDAX All
##DET_MODE   : MediumLE
#SPECTRUM    :
21,
384,
9073,
12435,
78944,
8223,
9035,
26233,
5579,
5037,
5498,
6343,
42570,
21746,
4434,
4418,
4752,
4304,
4186,
4169,
4036,
3913,
3728,
3507,
3527,
3392,
3099,
3052,
3843,
3045,
2981,
4547,
31369,
2932,
7763,
10105,
3076,
6475,
2068,
2742,
2647,
2346,
5912,
2054,
1652,
1576,
1981,
1649,
1368,
2956,
2412,
1274,
1190,
1207,
1361,
1303,
1076,
2255,
1753,
861,
902,
2127,
2829,
991,
923,
758,
719,
721,
1003,
772,
613,
635,
573,
584,
512,
499,
458,
431,
461,
376,
399,
359,
317,
276,
319,
252,
271,
225,
209,
196,
186,
179,
157,
164,
139,
116,
98,
98,
103,
74,
59,
57,
62,
27,
31,
27,
7,
6,
2,
0,
3,
1,
1,
0,
2,
3,
2,
0,
0,
0,
1,
0,
1,
1,
0,
0,
0,
0,
0,
1,
0,
2,
0,
0,
1,
0,
0,
0,
0,
0,
0,
0,
0,
0,
0,
1,
0,
0,
0,
0,
0,
0,
0,
0,
0,
0,
0,
0,
0,
0,
0,
0,
0,
0,
0,
0,
0,
0,
0,
0,
0,
0,
0,
0,
0,
0,
0,
0,
0,
0,
0,
0,
0,
0,
0,
0,
0,
0,
0,
0,
0,
0,
0,
0,
0,
0,
0,
0,
0,
0,
0,
0,
0,
0,
0,
0,
0,
0,
0,
0,
0,
0,
0,
0,
0,
0,
0,
0,
0,
0,
0,
0,
0,
0,
0,
0,
0,
0,
0,
0,
0,
0,
0,
0,
0,
0,
0,
0,
0,
0,
0,
0,
0,
0,
0,
0,
0,
0,
0,
0,
0,
0,
0,
0,
0,
0,
0,
0,
0,
0,
0,
0,
0,
0,
0,
0,
0,
0,
0,
0,
0,
0,
0,
0,
0,
0,
0,
0,
0,
0,
0,
0,
0,
0,
0,
0,
0,
0,
0,
0,
0,
0,
0,
0,
#ENDOFDATA   :