File: N132962/Quantification/15 keV/GMIIIA/GMIIIA K227[1][4].msa
#FORMAT      : EMSA/MAS Spectral Data File
#VERSION     : 1.0
#TITLE       : GMIIIA K227[1][all]
#DATE        : 22-SEP-2025
#TIME        : 14:16
#OWNER       : Unknown
#NPOINTS     : 4096
#NCOLUMNS    : 1
#XUNITS      : eV
#YUNITS      : counts
#DATATYPE    : Y
#XPERCHAN    : 9.99778
#OFFSET      : 1.69135
#BEAMKV      : 15
#SIGNALTYPE  : EDS
#ELEVANGLE   : 35
#AZIMANGLE   : 0
#LIVETIME    : 239.985
#REALTIME    : 261.229
#PROBECUR    : 1.21983
#TAUWIND     : 0
#TDEADLYR    : 0
#TACTLYR     : 0.045
#TALWIND     : 0.025
#CHOFFSET    : 0.0
#XLABEL      : Energy (eV)
#YLABEL      : Counts
#XPOSITION   : 7.72066
#YPOSITION   : 0.36426
#ZPOSITION   : 37.36299
#EDSDET      : SD
##SPECIMEN   : GMIIIA K227[1][all]
##D2STDCMP   : K227,(O:16.39),(Si:9.35),(Pb:74.27)
##DET_HASH   : 12273538-fd48-a23f-0a19-f1e6fa85caef
##CALIB_HASH : 6abaa72c-aa41-8738-0be9-f592914732f3
##WORKING    : 15.0 mm
##DET_NAME   : EDAX All
##DET_MODE   : MediumLE
#SPECTRUM    :
29,
737,
14500,
8423,
28498,
10329,
8105,
8648,
9247,
9874,
10276,
10732,
34952,
31286,
8687,
8947,
17831,
136622,
22883,
11629,
5254,
5778,
6834,
5284,
4912,
4888,
4646,
4710,
4596,
4544,
4462,
4168,
4397,
4153,
4280,
4092,
3728,
3750,
3657,
3515,
3358,
3426,
3414,
3190,
3075,
3144,
2987,
2876,
2800,
2655,
2622,
2497,
2511,
2391,
2315,
2226,
2185,
2095,
1992,
2001,
1941,
1839,
1759,
1693,
1782,
1745,
1610,
1503,
1455,
1398,
1301,
1363,
1275,
1223,
1268,
2542,
1645,
1019,
960,
921,
892,
870,
837,
745,
708,
648,
587,
614,
597,
550,
728,
523,
462,
414,
354,
317,
309,
232,
223,
210,
164,
141,
137,
99,
86,
63,
22,
14,
6,
2,
5,
1,
3,
1,
1,
4,
3,
2,
3,
4,
0,
5,
0,
1,
1,
3,
1,
2,
1,
4,
1,
0,
0,
0,
0,
2,
0,
1,
1,
2,
0,
0,
0,
0,
0,
1,
0,
0,
0,
0,
2,
0,
0,
0,
0,
1,
0,
0,
1,
0,
0,
0,
0,
0,
0,
2,
0,
0,
0,
0,
0,
0,
0,
0,
0,
0,
0,
0,
0,
0,
0,
0,
0,
0,
0,
0,
0,
0,
0,
0,
0,
0,
0,
0,
0,
0,
0,
0,
0,
0,
0,
0,
0,
0,
0,
0,
0,
0,
0,
0,
0,
0,
0,
0,
0,
0,
0,
0,
0,
0,
0,
0,
0,
0,
0,
0,
0,
0,
0,
0,
0,
0,
0,
0,
0,
0,
0,
0,
0,
0,
0,
0,
0,
0,
0,
0,
0,
0,
0,
0,
0,
0,
0,
0,
0,
0,
0,
0,
0,
0,
0,
0,
0,
0,
0,
0,
0,
0,
0,
0,
0,
0,
0,
0,
0,
0,
0,
0,
0,
0,
0,
0,
0,
0,
0,
0,
0,
0,
0,
0,
0,
0,
0,
0,
#ENDOFDATA   :