File: N132962/Quantification/15 keV/GMIIIA/GMIIIA K1053[8][4].msa
#FORMAT      : EMSA/MAS Spectral Data File
#VERSION     : 1.0
#TITLE       : GMIIIA K1053[8][all]
#DATE        : 22-SEP-2025
#TIME        : 21:19
#OWNER       : Unknown
#NPOINTS     : 4096
#NCOLUMNS    : 1
#XUNITS      : eV
#YUNITS      : counts
#DATATYPE    : Y
#XPERCHAN    : 9.99778
#OFFSET      : 1.69135
#BEAMKV      : 15
#SIGNALTYPE  : EDS
#ELEVANGLE   : 35
#AZIMANGLE   : 0
#LIVETIME    : 239.765
#REALTIME    : 260.9096
#PROBECUR    : 1.21822
#TAUWIND     : 0
#TDEADLYR    : 0
#TACTLYR     : 0.045
#TALWIND     : 0.025
#CHOFFSET    : 0.0
#XLABEL      : Energy (eV)
#YLABEL      : Counts
#XPOSITION   : 4.53662
#YPOSITION   : 15.33644
#ZPOSITION   : 37.36299
#EDSDET      : SD
##SPECIMEN   : GMIIIA K1053[8][all]
##D2STDCMP   : K1053,(O:16.13),(F:0.39),(Si:9.35),(Cl:0.64),(Br:1.09),(I:1.37),(Pb:71.02)
##DET_HASH   : 12273538-fd48-a23f-0a19-f1e6fa85caef
##CALIB_HASH : 6abaa72c-aa41-8738-0be9-f592914732f3
##WORKING    : 15.0 mm
##DET_NAME   : EDAX All
##DET_MODE   : MediumLE
#SPECTRUM    :
31,
779,
14639,
8550,
28314,
10475,
8152,
8761,
9234,
9869,
10738,
13232,
34136,
29874,
8740,
8772,
17687,
131490,
21989,
13563,
5401,
5737,
6971,
5195,
4824,
4960,
4631,
4641,
5852,
4544,
5156,
4503,
4641,
4088,
4173,
3892,
3952,
3815,
3516,
3506,
3433,
3308,
3285,
3144,
3111,
3048,
3016,
2827,
2721,
2709,
2585,
2544,
2410,
2353,
2240,
2238,
2150,
2105,
2036,
1938,
1850,
1902,
1791,
1706,
1675,
1653,
1527,
1506,
1422,
1393,
1339,
1260,
1214,
1212,
1301,
2551,
1657,
1033,
945,
923,
908,
784,
784,
748,
713,
721,
609,
637,
585,
551,
758,
496,
406,
397,
348,
315,
280,
273,
230,
201,
192,
140,
123,
104,
78,
57,
28,
9,
5,
4,
6,
0,
0,
1,
2,
2,
2,
2,
0,
2,
5,
3,
3,
3,
1,
2,
1,
1,
1,
1,
2,
0,
0,
1,
2,
3,
2,
0,
1,
0,
1,
1,
0,
1,
1,
0,
0,
1,
0,
0,
0,
0,
1,
0,
0,
1,
0,
0,
0,
0,
1,
0,
0,
0,
0,
0,
1,
0,
0,
0,
0,
0,
0,
0,
0,
1,
0,
0,
0,
0,
1,
0,
1,
0,
0,
0,
0,
0,
0,
0,
0,
0,
0,
0,
0,
0,
0,
0,
0,
0,
0,
0,
0,
0,
0,
0,
0,
0,
0,
0,
0,
0,
0,
0,
0,
0,
0,
0,
0,
0,
0,
0,
0,
0,
0,
0,
0,
0,
0,
0,
0,
0,
0,
0,
0,
0,
0,
0,
0,
0,
0,
0,
0,
0,
0,
0,
0,
0,
0,
0,
0,
0,
0,
0,
0,
0,
0,
0,
0,
0,
0,
0,
0,
0,
0,
0,
0,
0,
0,
0,
0,
0,
0,
0,
0,
0,
0,
0,
0,
0,
0,
0,
0,
0,
0,
0,
0,
0,
0,
0,
0,
0,
0,
0,
#ENDOFDATA   :