File: N132962/Quantification/15 keV/GMIIIA/GMIIIA K1053[0][4].msa
#FORMAT      : EMSA/MAS Spectral Data File
#VERSION     : 1.0
#TITLE       : GMIIIA K1053[0][all]
#DATE        : 22-SEP-2025
#TIME        : 21:10
#OWNER       : Unknown
#NPOINTS     : 4096
#NCOLUMNS    : 1
#XUNITS      : eV
#YUNITS      : counts
#DATATYPE    : Y
#XPERCHAN    : 9.99778
#OFFSET      : 1.69135
#BEAMKV      : 15
#SIGNALTYPE  : EDS
#ELEVANGLE   : 35
#AZIMANGLE   : 0
#LIVETIME    : 239.869
#REALTIME    : 260.976
#PROBECUR    : 1.21822
#TAUWIND     : 0
#TDEADLYR    : 0
#TACTLYR     : 0.045
#TALWIND     : 0.025
#CHOFFSET    : 0.0
#XLABEL      : Energy (eV)
#YLABEL      : Counts
#XPOSITION   : 4.54723
#YPOSITION   : 15.42561
#ZPOSITION   : 37.36299
#EDSDET      : SD
##SPECIMEN   : GMIIIA K1053[0][all]
##D2STDCMP   : K1053,(O:16.13),(F:0.39),(Si:9.35),(Cl:0.64),(Br:1.09),(I:1.37),(Pb:71.02)
##DET_HASH   : 12273538-fd48-a23f-0a19-f1e6fa85caef
##CALIB_HASH : 6abaa72c-aa41-8738-0be9-f592914732f3
##WORKING    : 15.0 mm
##DET_NAME   : EDAX All
##DET_MODE   : MediumLE
#SPECTRUM    :
26,
822,
14406,
8429,
28036,
10288,
8046,
8680,
9192,
10046,
10758,
13264,
34314,
30218,
8738,
8572,
17552,
131654,
22444,
13546,
5274,
5518,
6815,
5282,
4853,
4891,
4592,
4660,
5829,
4492,
4976,
4393,
4598,
4095,
4121,
3827,
3897,
3735,
3659,
3451,
3493,
3344,
3218,
3051,
2936,
3050,
3005,
2770,
2695,
2627,
2640,
2627,
2507,
2481,
2235,
2271,
2246,
2134,
2034,
2034,
1921,
1835,
1805,
1770,
1702,
1660,
1637,
1542,
1493,
1406,
1357,
1353,
1252,
1204,
1346,
2437,
1625,
1065,
988,
894,
878,
809,
794,
774,
699,
672,
595,
607,
561,
538,
744,
529,
433,
419,
361,
284,
308,
287,
225,
208,
179,
129,
111,
95,
68,
61,
31,
8,
6,
5,
2,
4,
1,
3,
4,
3,
2,
2,
3,
0,
0,
3,
2,
2,
0,
2,
1,
0,
2,
3,
2,
0,
0,
3,
1,
0,
0,
1,
1,
0,
0,
0,
2,
1,
1,
1,
0,
0,
0,
0,
1,
2,
1,
0,
3,
1,
2,
1,
0,
0,
1,
1,
1,
0,
1,
0,
0,
0,
1,
0,
0,
0,
0,
0,
0,
0,
1,
0,
0,
0,
0,
0,
0,
0,
0,
0,
0,
0,
0,
0,
0,
0,
0,
0,
0,
0,
0,
0,
0,
0,
0,
0,
0,
0,
0,
0,
0,
0,
0,
0,
0,
0,
0,
0,
0,
0,
0,
0,
0,
0,
0,
0,
0,
0,
0,
0,
0,
0,
0,
0,
0,
0,
0,
0,
0,
0,
0,
0,
0,
0,
0,
0,
0,
0,
0,
0,
0,
0,
0,
0,
0,
0,
0,
0,
0,
0,
0,
0,
0,
0,
0,
0,
0,
0,
0,
0,
0,
0,
0,
0,
0,
0,
0,
0,
0,
0,
0,
0,
0,
0,
0,
0,
0,
0,
0,
0,
0,
0,
0,
0,
0,
0,
0,
0,
#ENDOFDATA   :