File: N132962/Quantification/15 keV/GMIIIA/GMIIIA K1053[5][4].msa
#FORMAT      : EMSA/MAS Spectral Data File
#VERSION     : 1.0
#TITLE       : GMIIIA K1053[5][all]
#DATE        : 22-SEP-2025
#TIME        : 21:16
#OWNER       : Unknown
#NPOINTS     : 4096
#NCOLUMNS    : 1
#XUNITS      : eV
#YUNITS      : counts
#DATATYPE    : Y
#XPERCHAN    : 9.99778
#OFFSET      : 1.69135
#BEAMKV      : 15
#SIGNALTYPE  : EDS
#ELEVANGLE   : 35
#AZIMANGLE   : 0
#LIVETIME    : 239.897
#REALTIME    : 260.996
#PROBECUR    : 1.21822
#TAUWIND     : 0
#TDEADLYR    : 0
#TACTLYR     : 0.045
#TALWIND     : 0.025
#CHOFFSET    : 0.0
#XLABEL      : Energy (eV)
#YLABEL      : Counts
#XPOSITION   : 4.58185
#YPOSITION   : 15.44591
#ZPOSITION   : 37.36299
#EDSDET      : SD
##SPECIMEN   : GMIIIA K1053[5][all]
##D2STDCMP   : K1053,(O:16.13),(F:0.39),(Si:9.35),(Cl:0.64),(Br:1.09),(I:1.37),(Pb:71.02)
##DET_HASH   : 12273538-fd48-a23f-0a19-f1e6fa85caef
##CALIB_HASH : 6abaa72c-aa41-8738-0be9-f592914732f3
##WORKING    : 15.0 mm
##DET_NAME   : EDAX All
##DET_MODE   : MediumLE
#SPECTRUM    :
20,
769,
14386,
8434,
27995,
10290,
8251,
8697,
9344,
10069,
10507,
13316,
34287,
30091,
8610,
8721,
17649,
131819,
22339,
13322,
5375,
5758,
6948,
5168,
4731,
4978,
4696,
4661,
5753,
4543,
4939,
4475,
4568,
4118,
4086,
4102,
3819,
3744,
3644,
3533,
3377,
3362,
3296,
3171,
3111,
2958,
3008,
2866,
2727,
2646,
2643,
2520,
2544,
2348,
2314,
2207,
2215,
2052,
1997,
1956,
1869,
1879,
1776,
1714,
1691,
1672,
1578,
1413,
1448,
1393,
1359,
1240,
1226,
1249,
1311,
2478,
1661,
1033,
938,
890,
853,
812,
848,
728,
712,
721,
649,
612,
549,
531,
698,
499,
423,
397,
317,
302,
289,
268,
233,
208,
175,
146,
139,
104,
86,
46,
32,
8,
7,
4,
2,
5,
5,
2,
4,
2,
1,
2,
1,
1,
1,
3,
0,
2,
1,
4,
1,
5,
3,
0,
0,
1,
0,
0,
1,
2,
1,
2,
1,
3,
1,
0,
1,
1,
4,
1,
0,
1,
2,
0,
1,
0,
1,
1,
0,
0,
0,
0,
1,
0,
0,
1,
0,
0,
0,
0,
1,
0,
1,
0,
0,
1,
0,
0,
0,
0,
0,
0,
0,
0,
0,
0,
0,
0,
0,
0,
0,
0,
0,
0,
0,
0,
0,
0,
0,
0,
0,
0,
0,
0,
0,
0,
0,
0,
0,
0,
0,
0,
0,
0,
0,
0,
0,
0,
0,
0,
0,
0,
0,
0,
0,
0,
0,
0,
0,
0,
0,
0,
0,
0,
0,
0,
0,
0,
0,
0,
0,
0,
0,
0,
0,
0,
0,
0,
0,
0,
0,
0,
0,
0,
0,
0,
0,
0,
0,
0,
0,
0,
0,
0,
0,
0,
0,
0,
0,
0,
0,
0,
0,
0,
0,
0,
0,
0,
0,
0,
0,
0,
0,
0,
0,
0,
0,
0,
0,
0,
0,
0,
0,
0,
0,
0,
0,
0,
#ENDOFDATA   :