File: N132962/Quantification/15 keV/GMIIIA/GMIIIA K1236[5][4].msa
#FORMAT      : EMSA/MAS Spectral Data File
#VERSION     : 1.0
#TITLE       : GMIIIA K1236[5][all]
#DATE        : 22-SEP-2025
#TIME        : 23:10
#OWNER       : Unknown
#NPOINTS     : 4096
#NCOLUMNS    : 1
#XUNITS      : eV
#YUNITS      : counts
#DATATYPE    : Y
#XPERCHAN    : 9.99778
#OFFSET      : 1.69135
#BEAMKV      : 15
#SIGNALTYPE  : EDS
#ELEVANGLE   : 35
#AZIMANGLE   : 0
#LIVETIME    : 239.913
#REALTIME    : 258.86
#PROBECUR    : 1.21388
#TAUWIND     : 0
#TDEADLYR    : 0
#TACTLYR     : 0.045
#TALWIND     : 0.025
#CHOFFSET    : 0.0
#XLABEL      : Energy (eV)
#YLABEL      : Counts
#XPOSITION   : 7.20556
#YPOSITION   : 18.96651
#ZPOSITION   : 37.36299
#EDSDET      : SD
##SPECIMEN   : GMIIIA K1236[5][all]
##D2STDCMP   : K1236,(O:21.27),(Sc:0.65),(Ge:40.95),(Pb:37.13)
##DET_HASH   : 12273538-fd48-a23f-0a19-f1e6fa85caef
##CALIB_HASH : 6abaa72c-aa41-8738-0be9-f592914732f3
##WORKING    : 15.0 mm
##DET_NAME   : EDAX All
##DET_MODE   : MediumLE
#SPECTRUM    :
23,
466,
11625,
8718,
36308,
7687,
8207,
11837,
35422,
53163,
6549,
6464,
7070,
10925,
6268,
6592,
10545,
63607,
12667,
8223,
4738,
4938,
5625,
4634,
4422,
4398,
4372,
3990,
4007,
5279,
3800,
3675,
3975,
3462,
3352,
3208,
3201,
3002,
2915,
2866,
2769,
2761,
2653,
2428,
2485,
2368,
2511,
2256,
2233,
2089,
2055,
1916,
1946,
1891,
1878,
1700,
1619,
1651,
1466,
1547,
1509,
1412,
1245,
1242,
1270,
1188,
1207,
1125,
1048,
1167,
5407,
5394,
1002,
856,
949,
1485,
1069,
757,
1381,
1176,
589,
576,
552,
537,
495,
435,
493,
425,
370,
379,
422,
353,
308,
277,
210,
209,
195,
199,
157,
127,
141,
86,
92,
73,
52,
37,
15,
7,
4,
5,
1,
3,
1,
3,
1,
3,
3,
4,
1,
3,
1,
1,
1,
0,
0,
0,
0,
0,
2,
1,
3,
1,
0,
0,
0,
0,
0,
1,
1,
0,
1,
1,
1,
0,
0,
0,
0,
0,
0,
2,
0,
1,
1,
0,
0,
0,
0,
0,
0,
0,
0,
0,
0,
0,
0,
0,
0,
0,
0,
0,
0,
0,
0,
0,
0,
0,
0,
0,
0,
0,
0,
0,
0,
0,
0,
0,
0,
0,
0,
0,
0,
0,
0,
0,
0,
0,
0,
0,
0,
0,
0,
0,
0,
0,
0,
0,
0,
0,
0,
0,
0,
0,
0,
0,
0,
0,
0,
0,
0,
0,
0,
0,
0,
0,
0,
0,
0,
0,
0,
0,
0,
0,
0,
0,
0,
0,
0,
0,
0,
0,
0,
0,
0,
0,
0,
0,
0,
0,
0,
0,
0,
0,
0,
0,
0,
0,
0,
0,
0,
0,
0,
0,
0,
0,
0,
0,
0,
0,
0,
0,
0,
0,
0,
0,
0,
0,
0,
0,
0,
0,
0,
0,
0,
0,
0,
0,
0,
0,
0,
0,
0,
0,
0,
0,
#ENDOFDATA   :