File: N132962/Quantification/15 keV/GMIIIA/GMIIIA K227[5][4].msa
#FORMAT      : EMSA/MAS Spectral Data File
#VERSION     : 1.0
#TITLE       : GMIIIA K227[5][all]
#DATE        : 22-SEP-2025
#TIME        : 14:21
#OWNER       : Unknown
#NPOINTS     : 4096
#NCOLUMNS    : 1
#XUNITS      : eV
#YUNITS      : counts
#DATATYPE    : Y
#XPERCHAN    : 9.99778
#OFFSET      : 1.69135
#BEAMKV      : 15
#SIGNALTYPE  : EDS
#ELEVANGLE   : 35
#AZIMANGLE   : 0
#LIVETIME    : 240.2368
#REALTIME    : 261.551
#PROBECUR    : 1.21983
#TAUWIND     : 0
#TDEADLYR    : 0
#TACTLYR     : 0.045
#TALWIND     : 0.025
#CHOFFSET    : 0.0
#XLABEL      : Energy (eV)
#YLABEL      : Counts
#XPOSITION   : 7.67287
#YPOSITION   : 0.38588
#ZPOSITION   : 37.36299
#EDSDET      : SD
##SPECIMEN   : GMIIIA K227[5][all]
##D2STDCMP   : K227,(O:16.39),(Si:9.35),(Pb:74.27)
##DET_HASH   : 12273538-fd48-a23f-0a19-f1e6fa85caef
##CALIB_HASH : 6abaa72c-aa41-8738-0be9-f592914732f3
##WORKING    : 15.0 mm
##DET_NAME   : EDAX All
##DET_MODE   : MediumLE
#SPECTRUM    :
27,
783,
14610,
8348,
28661,
10578,
8050,
8814,
9308,
9848,
10383,
10888,
35383,
31101,
8977,
8881,
17932,
137077,
22815,
11638,
5200,
5586,
6917,
5232,
4756,
4914,
4686,
4684,
4474,
4570,
4369,
4351,
4325,
4141,
4223,
4034,
3958,
3766,
3626,
3587,
3484,
3394,
3295,
3201,
3134,
3010,
3018,
2905,
2786,
2793,
2726,
2581,
2432,
2518,
2327,
2248,
2192,
2100,
2122,
2052,
1952,
1905,
1819,
1876,
1731,
1576,
1577,
1478,
1557,
1466,
1329,
1293,
1272,
1171,
1270,
2518,
1766,
999,
999,
920,
868,
830,
791,
744,
717,
710,
626,
610,
569,
551,
752,
482,
409,
418,
366,
314,
287,
290,
236,
200,
142,
166,
131,
123,
86,
58,
42,
17,
2,
7,
3,
3,
0,
3,
5,
4,
2,
1,
1,
2,
1,
2,
2,
1,
0,
1,
0,
2,
0,
0,
0,
2,
4,
0,
0,
0,
2,
2,
1,
1,
1,
2,
0,
0,
1,
2,
0,
2,
0,
0,
0,
0,
0,
0,
0,
0,
0,
0,
0,
0,
0,
0,
0,
0,
0,
0,
0,
0,
0,
0,
0,
0,
0,
0,
0,
1,
0,
0,
0,
0,
0,
0,
0,
0,
0,
0,
0,
0,
0,
0,
0,
0,
0,
0,
0,
0,
0,
0,
0,
0,
0,
0,
0,
0,
0,
0,
0,
0,
0,
0,
0,
0,
0,
0,
0,
0,
0,
0,
0,
0,
0,
0,
0,
0,
0,
0,
0,
0,
0,
0,
0,
0,
0,
0,
0,
0,
0,
0,
0,
0,
0,
0,
0,
0,
0,
0,
0,
0,
0,
0,
0,
0,
0,
0,
0,
0,
0,
0,
0,
0,
0,
0,
0,
0,
0,
0,
0,
0,
0,
0,
0,
0,
0,
0,
0,
0,
0,
0,
0,
0,
0,
0,
0,
0,
0,
0,
0,
0,
0,
0,
0,
0,
0,
0,
#ENDOFDATA   :