File: N132962/Quantification/15 keV/GMIIIA/GMIIIA K251[1][4].msa
#FORMAT      : EMSA/MAS Spectral Data File
#VERSION     : 1.0
#TITLE       : GMIIIA K251[1][all]
#DATE        : 22-SEP-2025
#TIME        : 14:57
#OWNER       : Unknown
#NPOINTS     : 4096
#NCOLUMNS    : 1
#XUNITS      : eV
#YUNITS      : counts
#DATATYPE    : Y
#XPERCHAN    : 9.99778
#OFFSET      : 1.69135
#BEAMKV      : 15
#SIGNALTYPE  : EDS
#ELEVANGLE   : 35
#AZIMANGLE   : 0
#LIVETIME    : 239.922
#REALTIME    : 259.12
#PROBECUR    : 1.21732
#TAUWIND     : 0
#TDEADLYR    : 0
#TACTLYR     : 0.045
#TALWIND     : 0.025
#CHOFFSET    : 0.0
#XLABEL      : Energy (eV)
#YLABEL      : Counts
#XPOSITION   : 7.08115
#YPOSITION   : 2.42165
#ZPOSITION   : 37.36299
#EDSDET      : SD
##SPECIMEN   : GMIIIA K251[1][all]
##D2STDCMP   : K251,(O:23.02),(Al:1.32),(Si:14.02),(Ba:8.96),(Ta:4.09),(Pb:44.1),(Bi:4.48)
##DET_HASH   : 12273538-fd48-a23f-0a19-f1e6fa85caef
##CALIB_HASH : 6abaa72c-aa41-8738-0be9-f592914732f3
##WORKING    : 15.0 mm
##DET_NAME   : EDAX All
##DET_MODE   : MediumLE
#SPECTRUM    :
26,
591,
12400,
9170,
39763,
7614,
7378,
8230,
7904,
8561,
9519,
13044,
50455,
29962,
7259,
6724,
12303,
79637,
18777,
8838,
4791,
4932,
5614,
4704,
4309,
4262,
4090,
3993,
4130,
4050,
3775,
4091,
11570,
3527,
5013,
5632,
3427,
4476,
3069,
3216,
3057,
2917,
2802,
2656,
2485,
2486,
2414,
2324,
2275,
2171,
2130,
2086,
1885,
2012,
1866,
1800,
1678,
1743,
2360,
1760,
1488,
1455,
1423,
1365,
1305,
1342,
1297,
1423,
1218,
1219,
1029,
1081,
989,
954,
934,
1634,
1166,
827,
790,
709,
651,
669,
592,
547,
543,
488,
459,
445,
396,
420,
526,
399,
318,
319,
237,
240,
202,
196,
164,
163,
151,
118,
87,
70,
68,
38,
19,
4,
3,
3,
4,
1,
0,
2,
2,
3,
1,
2,
1,
2,
0,
3,
1,
0,
2,
1,
2,
2,
0,
2,
2,
0,
0,
0,
1,
1,
0,
0,
4,
0,
0,
0,
1,
1,
0,
1,
0,
0,
0,
0,
0,
0,
0,
0,
0,
0,
0,
0,
0,
0,
0,
0,
0,
0,
0,
0,
0,
0,
0,
0,
0,
0,
0,
0,
0,
0,
0,
0,
0,
0,
0,
0,
0,
0,
0,
0,
0,
0,
0,
0,
0,
0,
0,
0,
0,
0,
0,
0,
0,
0,
0,
0,
0,
0,
0,
0,
0,
0,
0,
0,
0,
0,
0,
0,
0,
0,
0,
0,
0,
0,
0,
0,
0,
0,
0,
0,
0,
0,
0,
0,
0,
0,
0,
0,
0,
0,
0,
0,
0,
0,
0,
0,
0,
0,
0,
0,
0,
0,
0,
0,
0,
0,
0,
0,
0,
0,
0,
0,
0,
0,
0,
0,
0,
0,
0,
0,
0,
0,
0,
0,
0,
0,
0,
0,
0,
0,
0,
0,
0,
0,
0,
0,
0,
0,
0,
0,
0,
0,
0,
0,
0,
0,
0,
0,
#ENDOFDATA   :