File: N132962/Quantification/15 keV/GMIIIA/GMIIIA K366[0][4].msa
#FORMAT      : EMSA/MAS Spectral Data File
#VERSION     : 1.0
#TITLE       : GMIIIA K366[0][all]
#DATE        : 22-SEP-2025
#TIME        : 15:36
#OWNER       : Unknown
#NPOINTS     : 4096
#NCOLUMNS    : 1
#XUNITS      : eV
#YUNITS      : counts
#DATATYPE    : Y
#XPERCHAN    : 9.99778
#OFFSET      : 1.69135
#BEAMKV      : 15
#SIGNALTYPE  : EDS
#ELEVANGLE   : 35
#AZIMANGLE   : 0
#LIVETIME    : 240.012
#REALTIME    : 260.386
#PROBECUR    : 1.21681
#TAUWIND     : 0
#TDEADLYR    : 0
#TACTLYR     : 0.045
#TALWIND     : 0.025
#CHOFFSET    : 0.0
#XLABEL      : Energy (eV)
#YLABEL      : Counts
#XPOSITION   : 8.38481
#YPOSITION   : 4.16745
#ZPOSITION   : 37.36299
#EDSDET      : SD
##SPECIMEN   : GMIIIA K366[0][all]
##D2STDCMP   : K366,(O:20.43),(Si:13.45),(Pb:66.12)
##DET_HASH   : 12273538-fd48-a23f-0a19-f1e6fa85caef
##CALIB_HASH : 6abaa72c-aa41-8738-0be9-f592914732f3
##WORKING    : 15.0 mm
##DET_NAME   : EDAX All
##DET_MODE   : MediumLE
#SPECTRUM    :
26,
614,
13425,
8661,
33239,
8720,
7734,
8284,
8795,
9401,
9736,
10329,
44128,
33179,
7912,
7937,
15855,
119302,
20042,
10677,
4875,
5392,
6332,
4666,
4459,
4493,
4296,
4349,
4067,
4225,
4105,
3844,
3983,
3848,
3800,
3680,
3567,
3392,
3336,
3199,
3134,
3051,
2984,
2924,
2801,
2807,
2759,
2585,
2521,
2532,
2316,
2305,
2131,
2286,
2091,
2054,
1920,
1888,
1870,
1738,
1747,
1705,
1615,
1611,
1534,
1481,
1419,
1301,
1303,
1245,
1195,
1155,
1071,
1062,
1139,
2175,
1488,
913,
847,
833,
803,
722,
703,
666,
620,
599,
563,
536,
500,
503,
607,
457,
349,
327,
273,
287,
219,
227,
219,
192,
158,
130,
112,
91,
52,
45,
24,
13,
10,
2,
2,
3,
1,
10,
3,
1,
4,
2,
2,
0,
3,
0,
0,
0,
2,
4,
3,
0,
0,
1,
2,
0,
1,
2,
3,
0,
0,
0,
1,
0,
0,
0,
0,
0,
0,
1,
0,
0,
0,
1,
1,
0,
0,
0,
0,
0,
0,
0,
0,
0,
0,
0,
0,
0,
0,
0,
0,
0,
0,
0,
0,
1,
0,
0,
0,
0,
0,
0,
0,
0,
0,
0,
1,
0,
0,
1,
0,
0,
0,
0,
0,
0,
0,
0,
0,
0,
0,
0,
0,
0,
0,
0,
0,
0,
0,
0,
0,
0,
0,
0,
0,
0,
0,
0,
0,
0,
0,
0,
0,
0,
0,
0,
0,
0,
0,
0,
0,
0,
0,
0,
0,
0,
0,
0,
0,
0,
0,
0,
0,
0,
0,
0,
0,
0,
0,
0,
0,
0,
0,
0,
0,
0,
0,
0,
0,
0,
0,
0,
0,
0,
0,
0,
0,
0,
0,
0,
0,
0,
0,
0,
0,
0,
0,
0,
0,
0,
0,
0,
0,
0,
0,
0,
0,
0,
0,
0,
0,
0,
0,
0,
0,
0,
0,
0,
#ENDOFDATA   :