File: N132962/Quantification/15 keV/GMIIIA/GMIIIA K1236[8][4].msa
#FORMAT      : EMSA/MAS Spectral Data File
#VERSION     : 1.0
#TITLE       : GMIIIA K1236[8][all]
#DATE        : 22-SEP-2025
#TIME        : 23:13
#OWNER       : Unknown
#NPOINTS     : 4096
#NCOLUMNS    : 1
#XUNITS      : eV
#YUNITS      : counts
#DATATYPE    : Y
#XPERCHAN    : 9.99778
#OFFSET      : 1.69135
#BEAMKV      : 15
#SIGNALTYPE  : EDS
#ELEVANGLE   : 35
#AZIMANGLE   : 0
#LIVETIME    : 239.928
#REALTIME    : 258.881
#PROBECUR    : 1.21388
#TAUWIND     : 0
#TDEADLYR    : 0
#TACTLYR     : 0.045
#TALWIND     : 0.025
#CHOFFSET    : 0.0
#XLABEL      : Energy (eV)
#YLABEL      : Counts
#XPOSITION   : 7.24035
#YPOSITION   : 18.97754
#ZPOSITION   : 37.36299
#EDSDET      : SD
##SPECIMEN   : GMIIIA K1236[8][all]
##D2STDCMP   : K1236,(O:21.27),(Sc:0.65),(Ge:40.95),(Pb:37.13)
##DET_HASH   : 12273538-fd48-a23f-0a19-f1e6fa85caef
##CALIB_HASH : 6abaa72c-aa41-8738-0be9-f592914732f3
##WORKING    : 15.0 mm
##DET_NAME   : EDAX All
##DET_MODE   : MediumLE
#SPECTRUM    :
29,
487,
11109,
8898,
36534,
7748,
8160,
11752,
35724,
53793,
6252,
6626,
7059,
10872,
6348,
6562,
10406,
63421,
12863,
8419,
4837,
4890,
5548,
4539,
4367,
4558,
4342,
4078,
3852,
5341,
3805,
3631,
3774,
3410,
3339,
3313,
3095,
3080,
3062,
2889,
2736,
2735,
2580,
2594,
2519,
2439,
2355,
2245,
2135,
2151,
2111,
2027,
1924,
1904,
1795,
1744,
1630,
1652,
1570,
1487,
1495,
1374,
1332,
1327,
1301,
1281,
1192,
1100,
1107,
1185,
5300,
5187,
1015,
876,
937,
1432,
1053,
797,
1422,
1145,
624,
548,
527,
499,
491,
458,
481,
425,
406,
385,
449,
339,
281,
296,
229,
204,
178,
177,
145,
139,
116,
112,
91,
86,
63,
49,
20,
7,
6,
2,
3,
3,
1,
0,
0,
0,
0,
0,
1,
2,
2,
0,
0,
3,
3,
1,
2,
2,
2,
2,
0,
0,
0,
0,
0,
0,
0,
0,
1,
0,
0,
1,
0,
0,
0,
0,
0,
0,
1,
1,
0,
0,
0,
1,
0,
0,
0,
0,
0,
0,
0,
0,
1,
0,
0,
0,
0,
0,
0,
0,
0,
0,
0,
0,
0,
0,
0,
0,
0,
0,
0,
0,
0,
0,
0,
0,
0,
0,
0,
0,
0,
0,
0,
0,
0,
0,
0,
0,
0,
0,
0,
0,
0,
0,
0,
0,
0,
0,
0,
0,
0,
0,
0,
0,
0,
0,
0,
0,
0,
0,
0,
0,
0,
0,
0,
0,
0,
0,
0,
0,
0,
0,
0,
0,
0,
0,
0,
0,
0,
0,
0,
0,
0,
0,
0,
0,
0,
0,
0,
0,
0,
0,
0,
0,
0,
0,
0,
0,
0,
0,
0,
0,
0,
0,
0,
0,
0,
0,
0,
0,
0,
0,
0,
0,
0,
0,
0,
0,
0,
0,
0,
0,
0,
0,
0,
0,
0,
0,
0,
0,
0,
0,
0,
0,
#ENDOFDATA   :