File: N132962/Quantification/15 keV/GMIIIA/GMIIIA K253[1][4].msa
#FORMAT      : EMSA/MAS Spectral Data File
#VERSION     : 1.0
#TITLE       : GMIIIA K253[1][all]
#DATE        : 22-SEP-2025
#TIME        : 14:41
#OWNER       : Unknown
#NPOINTS     : 4096
#NCOLUMNS    : 1
#XUNITS      : eV
#YUNITS      : counts
#DATATYPE    : Y
#XPERCHAN    : 9.99778
#OFFSET      : 1.69135
#BEAMKV      : 15
#SIGNALTYPE  : EDS
#ELEVANGLE   : 35
#AZIMANGLE   : 0
#LIVETIME    : 239.864
#REALTIME    : 256.997
#PROBECUR    : 1.21983
#TAUWIND     : 0
#TDEADLYR    : 0
#TACTLYR     : 0.045
#TALWIND     : 0.025
#CHOFFSET    : 0.0
#XLABEL      : Energy (eV)
#YLABEL      : Counts
#XPOSITION   : 2.53598
#YPOSITION   : 2.23977
#ZPOSITION   : 37.36299
#EDSDET      : SD
##SPECIMEN   : GMIIIA K253[1][all]
##D2STDCMP   : K253,(O:31.64),(Si:18.7),(Mn:6.32),(Co:1.97),(Cu:2.0),(Zn:8.03),(Ba:31.35)
##DET_HASH   : 12273538-fd48-a23f-0a19-f1e6fa85caef
##CALIB_HASH : 6abaa72c-aa41-8738-0be9-f592914732f3
##WORKING    : 15.0 mm
##DET_NAME   : EDAX All
##DET_MODE   : MediumLE
#SPECTRUM    :
27,
361,
9204,
12525,
80922,
7598,
7878,
24425,
5541,
5097,
5459,
6268,
42520,
21943,
4473,
4397,
4557,
4348,
4077,
4125,
4042,
3787,
3693,
3534,
3413,
3411,
3167,
3062,
3880,
2999,
2767,
4567,
31448,
2983,
7787,
10151,
3150,
6505,
2131,
2760,
2745,
2450,
9659,
2479,
1620,
1578,
2261,
1668,
1352,
2355,
1937,
1251,
1213,
1149,
1245,
1179,
1091,
1721,
1527,
947,
924,
2004,
2842,
871,
862,
744,
806,
707,
938,
779,
599,
584,
549,
512,
577,
471,
457,
448,
366,
404,
378,
342,
357,
297,
292,
280,
249,
245,
269,
200,
204,
177,
170,
144,
121,
111,
115,
97,
98,
73,
63,
64,
54,
39,
27,
21,
10,
3,
2,
1,
1,
3,
1,
0,
0,
2,
0,
0,
0,
1,
1,
1,
1,
0,
0,
0,
0,
0,
2,
1,
0,
1,
0,
0,
1,
1,
2,
1,
0,
0,
0,
1,
0,
0,
1,
0,
0,
0,
0,
1,
0,
0,
1,
0,
0,
0,
0,
0,
0,
0,
0,
0,
0,
0,
0,
0,
0,
0,
0,
0,
0,
0,
0,
0,
0,
0,
0,
0,
0,
0,
0,
0,
0,
0,
0,
0,
0,
0,
0,
0,
0,
0,
0,
0,
0,
0,
0,
0,
0,
0,
0,
0,
0,
0,
0,
0,
0,
0,
0,
0,
0,
0,
0,
0,
0,
0,
0,
0,
0,
0,
0,
0,
0,
0,
0,
0,
0,
0,
0,
0,
0,
0,
0,
0,
0,
0,
0,
0,
0,
0,
0,
0,
0,
0,
0,
0,
0,
0,
0,
0,
0,
0,
0,
0,
0,
0,
0,
0,
0,
0,
0,
0,
0,
0,
0,
0,
0,
0,
0,
0,
0,
0,
0,
0,
0,
0,
0,
0,
0,
0,
0,
0,
0,
0,
0,
0,
0,
0,
0,
0,
0,
0,
0,
0,
#ENDOFDATA   :