File: N132962/Quantification/15 keV/GMIIIA/GMIIIA K309[4][4].msa
#FORMAT      : EMSA/MAS Spectral Data File
#VERSION     : 1.0
#TITLE       : GMIIIA K309[4][all]
#DATE        : 22-SEP-2025
#TIME        : 15:24
#OWNER       : Unknown
#NPOINTS     : 4096
#NCOLUMNS    : 1
#XUNITS      : eV
#YUNITS      : counts
#DATATYPE    : Y
#XPERCHAN    : 9.99778
#OFFSET      : 1.69135
#BEAMKV      : 15
#SIGNALTYPE  : EDS
#ELEVANGLE   : 35
#AZIMANGLE   : 0
#LIVETIME    : 239.9628
#REALTIME    : 255.593
#PROBECUR    : 1.21681
#TAUWIND     : 0
#TDEADLYR    : 0
#TACTLYR     : 0.045
#TALWIND     : 0.025
#CHOFFSET    : 0.0
#XLABEL      : Energy (eV)
#YLABEL      : Counts
#XPOSITION   : 12.54883
#YPOSITION   : 3.87132
#ZPOSITION   : 37.36299
#EDSDET      : SD
##SPECIMEN   : GMIIIA K309[4][all]
##D2STDCMP   : K309,(O:38.72),(Al:7.94),(Si:18.7),(Ca:10.72),(Fe:10.49),(Ba:13.43)
##DET_HASH   : 12273538-fd48-a23f-0a19-f1e6fa85caef
##CALIB_HASH : 6abaa72c-aa41-8738-0be9-f592914732f3
##WORKING    : 15.0 mm
##DET_NAME   : EDAX All
##DET_MODE   : MediumLE
#SPECTRUM    :
24,
290,
10759,
9154,
67402,
16344,
4253,
5157,
4837,
5038,
9012,
24461,
42838,
21363,
4018,
3482,
3959,
3328,
3376,
3155,
3162,
2989,
2953,
2939,
2648,
2801,
21290,
8748,
3307,
4995,
2090,
2595,
13225,
1923,
3693,
4745,
1840,
3327,
1452,
1735,
1694,
1472,
1388,
1224,
1148,
3462,
9045,
1071,
1024,
1058,
1763,
1319,
815,
808,
798,
740,
702,
699,
711,
628,
610,
626,
589,
544,
554,
538,
459,
489,
420,
427,
393,
396,
330,
367,
370,
313,
302,
290,
274,
249,
276,
207,
216,
167,
195,
162,
147,
132,
139,
110,
115,
118,
89,
104,
88,
77,
97,
57,
50,
46,
38,
26,
33,
25,
20,
9,
6,
1,
5,
0,
0,
0,
1,
0,
2,
0,
1,
0,
1,
1,
0,
1,
0,
0,
0,
4,
0,
1,
1,
0,
0,
0,
0,
0,
0,
0,
0,
0,
0,
0,
1,
0,
1,
0,
0,
0,
0,
0,
0,
0,
0,
0,
0,
0,
0,
0,
0,
0,
0,
0,
0,
0,
0,
0,
0,
0,
0,
0,
0,
0,
0,
0,
0,
0,
0,
0,
0,
0,
0,
0,
0,
0,
0,
0,
0,
0,
0,
0,
0,
0,
0,
0,
0,
0,
0,
0,
0,
0,
0,
0,
0,
0,
0,
0,
0,
0,
0,
0,
0,
0,
0,
0,
0,
0,
0,
0,
0,
0,
0,
0,
0,
0,
0,
0,
0,
0,
0,
0,
0,
0,
0,
0,
0,
0,
0,
0,
0,
0,
0,
0,
0,
0,
0,
0,
0,
0,
0,
0,
0,
0,
0,
0,
0,
0,
0,
0,
0,
0,
0,
0,
0,
0,
0,
0,
0,
0,
0,
0,
0,
0,
0,
0,
0,
0,
0,
0,
0,
0,
0,
0,
0,
0,
0,
0,
0,
0,
0,
0,
0,
0,
0,
0,
0,
0,
#ENDOFDATA   :