File: N132962/Quantification/15 keV/GMIIIA/GMIIIA K230[5][4].msa
#FORMAT      : EMSA/MAS Spectral Data File
#VERSION     : 1.0
#TITLE       : GMIIIA K230[5][all]
#DATE        : 22-SEP-2025
#TIME        : 14:37
#OWNER       : Unknown
#NPOINTS     : 4096
#NCOLUMNS    : 1
#XUNITS      : eV
#YUNITS      : counts
#DATATYPE    : Y
#XPERCHAN    : 9.99778
#OFFSET      : 1.69135
#BEAMKV      : 15
#SIGNALTYPE  : EDS
#ELEVANGLE   : 35
#AZIMANGLE   : 0
#LIVETIME    : 239.795
#REALTIME    : 258.53
#PROBECUR    : 1.21983
#TAUWIND     : 0
#TDEADLYR    : 0
#TACTLYR     : 0.045
#TALWIND     : 0.025
#CHOFFSET    : 0.0
#XLABEL      : Energy (eV)
#YLABEL      : Counts
#XPOSITION   : 3.91829
#YPOSITION   : 0.86622
#ZPOSITION   : 37.36299
#EDSDET      : SD
##SPECIMEN   : GMIIIA K230[5][all]
##D2STDCMP   : K230,(O:24.49),(Al:2.65),(Si:14.02),(Zn:4.02),(Ba:8.96),(Ta:4.09),(Pb:41.77)
##DET_HASH   : 12273538-fd48-a23f-0a19-f1e6fa85caef
##CALIB_HASH : 6abaa72c-aa41-8738-0be9-f592914732f3
##WORKING    : 15.0 mm
##DET_NAME   : EDAX All
##DET_MODE   : MediumLE
#SPECTRUM    :
30,
485,
12134,
9121,
43605,
7799,
7565,
17369,
7915,
7953,
9488,
15344,
47994,
28390,
7302,
6493,
11050,
68741,
13213,
8446,
4536,
4621,
5381,
4307,
4231,
4108,
3987,
3851,
3810,
3890,
3745,
4069,
11270,
3425,
4612,
5135,
3270,
4079,
2855,
2939,
2901,
2720,
2542,
2407,
2242,
2333,
2171,
2085,
2081,
1918,
1944,
1832,
1879,
1728,
1735,
1635,
1632,
1686,
2277,
1583,
1393,
2005,
2316,
1299,
1223,
1126,
1294,
1279,
1185,
1217,
985,
959,
859,
816,
904,
1468,
963,
763,
663,
616,
628,
580,
552,
494,
452,
435,
418,
390,
331,
361,
407,
317,
247,
266,
233,
211,
175,
156,
175,
141,
132,
111,
88,
59,
41,
25,
24,
3,
3,
5,
1,
1,
1,
2,
3,
1,
2,
2,
1,
0,
1,
1,
1,
0,
2,
0,
0,
1,
1,
1,
1,
2,
0,
1,
0,
0,
0,
0,
0,
0,
0,
0,
0,
0,
0,
0,
1,
0,
1,
2,
0,
0,
0,
0,
0,
0,
0,
0,
0,
0,
0,
0,
0,
0,
1,
0,
0,
0,
0,
0,
0,
1,
0,
0,
0,
0,
0,
0,
0,
0,
0,
0,
0,
0,
0,
0,
0,
0,
0,
0,
0,
0,
0,
0,
0,
0,
0,
0,
0,
0,
0,
0,
0,
0,
0,
0,
0,
0,
0,
0,
0,
0,
0,
0,
0,
0,
0,
0,
0,
0,
0,
0,
0,
0,
0,
0,
0,
0,
0,
0,
0,
0,
0,
0,
0,
0,
0,
0,
0,
0,
0,
0,
0,
0,
0,
0,
0,
0,
0,
0,
0,
0,
0,
0,
0,
0,
0,
0,
0,
0,
0,
0,
0,
0,
0,
0,
0,
0,
0,
0,
0,
0,
0,
0,
0,
0,
0,
0,
0,
0,
0,
0,
0,
0,
0,
0,
0,
0,
0,
0,
0,
0,
0,
0,
#ENDOFDATA   :