File: N132962/Quantification/15 keV/GMIIIA/GMIIIA K227[4][4].msa
#FORMAT      : EMSA/MAS Spectral Data File
#VERSION     : 1.0
#TITLE       : GMIIIA K227[4][all]
#DATE        : 22-SEP-2025
#TIME        : 14:20
#OWNER       : Unknown
#NPOINTS     : 4096
#NCOLUMNS    : 1
#XUNITS      : eV
#YUNITS      : counts
#DATATYPE    : Y
#XPERCHAN    : 9.99778
#OFFSET      : 1.69135
#BEAMKV      : 15
#SIGNALTYPE  : EDS
#ELEVANGLE   : 35
#AZIMANGLE   : 0
#LIVETIME    : 239.661
#REALTIME    : 260.843
#PROBECUR    : 1.21983
#TAUWIND     : 0
#TDEADLYR    : 0
#TACTLYR     : 0.045
#TALWIND     : 0.025
#CHOFFSET    : 0.0
#XLABEL      : Energy (eV)
#YLABEL      : Counts
#XPOSITION   : 7.7164
#YPOSITION   : 0.28814
#ZPOSITION   : 37.36299
#EDSDET      : SD
##SPECIMEN   : GMIIIA K227[4][all]
##D2STDCMP   : K227,(O:16.39),(Si:9.35),(Pb:74.27)
##DET_HASH   : 12273538-fd48-a23f-0a19-f1e6fa85caef
##CALIB_HASH : 6abaa72c-aa41-8738-0be9-f592914732f3
##WORKING    : 15.0 mm
##DET_NAME   : EDAX All
##DET_MODE   : MediumLE
#SPECTRUM    :
36,
805,
14496,
8332,
28669,
10644,
8058,
8699,
9321,
9744,
10322,
10838,
35168,
30904,
8810,
8973,
17873,
136922,
22594,
11634,
5305,
5791,
6727,
5212,
4821,
4979,
4681,
4757,
4415,
4528,
4518,
4293,
4313,
4161,
4207,
3980,
3800,
3778,
3836,
3671,
3437,
3336,
3356,
3239,
3174,
3046,
3061,
2870,
2798,
2753,
2619,
2512,
2527,
2414,
2423,
2280,
2141,
2172,
2070,
1928,
1941,
1856,
1835,
1737,
1726,
1674,
1588,
1513,
1505,
1365,
1368,
1323,
1233,
1269,
1337,
2485,
1607,
1014,
962,
943,
879,
836,
777,
703,
730,
676,
660,
560,
607,
513,
750,
501,
409,
438,
319,
351,
292,
236,
241,
197,
183,
147,
118,
97,
84,
52,
31,
13,
5,
3,
3,
3,
3,
1,
2,
2,
5,
2,
2,
0,
1,
2,
2,
4,
2,
0,
0,
1,
0,
1,
1,
0,
0,
3,
1,
1,
0,
1,
2,
0,
2,
1,
0,
0,
0,
2,
0,
0,
0,
0,
0,
0,
0,
0,
0,
2,
0,
0,
1,
0,
0,
0,
0,
0,
0,
0,
1,
0,
0,
1,
0,
0,
0,
0,
0,
0,
0,
0,
0,
0,
0,
0,
0,
1,
0,
0,
0,
0,
0,
0,
0,
0,
0,
0,
0,
0,
0,
0,
0,
0,
0,
0,
0,
0,
0,
0,
0,
0,
0,
0,
0,
0,
0,
0,
0,
0,
0,
0,
0,
0,
0,
0,
0,
0,
0,
0,
0,
0,
0,
0,
0,
0,
0,
0,
0,
0,
0,
0,
0,
0,
0,
0,
0,
0,
0,
0,
0,
0,
0,
0,
0,
0,
0,
0,
0,
0,
0,
0,
0,
0,
0,
0,
0,
0,
0,
0,
0,
0,
0,
0,
0,
0,
0,
0,
0,
0,
0,
0,
0,
0,
0,
0,
0,
0,
0,
0,
0,
0,
0,
0,
0,
0,
0,
0,
#ENDOFDATA   :