File: N132962/Quantification/15 keV/GMIIIA/GMIIIA K251[2][4].msa
#FORMAT      : EMSA/MAS Spectral Data File
#VERSION     : 1.0
#TITLE       : GMIIIA K251[2][all]
#DATE        : 22-SEP-2025
#TIME        : 14:58
#OWNER       : Unknown
#NPOINTS     : 4096
#NCOLUMNS    : 1
#XUNITS      : eV
#YUNITS      : counts
#DATATYPE    : Y
#XPERCHAN    : 9.99778
#OFFSET      : 1.69135
#BEAMKV      : 15
#SIGNALTYPE  : EDS
#ELEVANGLE   : 35
#AZIMANGLE   : 0
#LIVETIME    : 239.936
#REALTIME    : 259.147
#PROBECUR    : 1.21732
#TAUWIND     : 0
#TDEADLYR    : 0
#TACTLYR     : 0.045
#TALWIND     : 0.025
#CHOFFSET    : 0.0
#XLABEL      : Energy (eV)
#YLABEL      : Counts
#XPOSITION   : 7.0718
#YPOSITION   : 2.45775
#ZPOSITION   : 37.36299
#EDSDET      : SD
##SPECIMEN   : GMIIIA K251[2][all]
##D2STDCMP   : K251,(O:23.02),(Al:1.32),(Si:14.02),(Ba:8.96),(Ta:4.09),(Pb:44.1),(Bi:4.48)
##DET_HASH   : 12273538-fd48-a23f-0a19-f1e6fa85caef
##CALIB_HASH : 6abaa72c-aa41-8738-0be9-f592914732f3
##WORKING    : 15.0 mm
##DET_NAME   : EDAX All
##DET_MODE   : MediumLE
#SPECTRUM    :
31,
563,
12315,
9346,
40276,
7947,
7382,
7982,
8132,
8573,
9630,
13291,
50791,
29941,
7323,
6765,
12088,
79484,
18807,
8791,
4834,
4881,
5769,
4715,
4336,
4278,
4201,
4098,
4095,
3974,
3925,
4208,
11587,
3582,
4939,
5489,
3526,
4386,
3048,
3195,
3074,
2939,
2722,
2527,
2540,
2393,
2474,
2378,
2238,
2169,
1978,
2077,
1963,
1925,
1882,
1838,
1695,
1805,
2393,
1659,
1559,
1499,
1441,
1403,
1338,
1295,
1312,
1376,
1226,
1247,
1065,
1085,
956,
862,
983,
1554,
1118,
874,
856,
706,
638,
652,
593,
578,
524,
486,
514,
463,
442,
374,
513,
328,
316,
320,
269,
230,
213,
215,
184,
137,
147,
103,
97,
88,
58,
44,
14,
6,
4,
5,
5,
0,
1,
2,
6,
1,
4,
1,
3,
0,
0,
2,
1,
0,
0,
5,
0,
1,
1,
1,
2,
1,
2,
1,
0,
1,
0,
0,
0,
1,
0,
1,
0,
0,
0,
0,
1,
1,
1,
0,
0,
0,
1,
0,
0,
1,
0,
1,
0,
1,
0,
0,
0,
0,
0,
1,
0,
0,
0,
0,
0,
0,
0,
0,
0,
0,
0,
0,
0,
0,
0,
0,
0,
0,
0,
0,
0,
0,
0,
0,
0,
0,
0,
0,
0,
0,
0,
0,
0,
0,
0,
0,
0,
0,
0,
0,
0,
0,
0,
0,
0,
0,
0,
0,
0,
0,
0,
0,
0,
0,
0,
0,
0,
0,
0,
0,
0,
0,
0,
0,
0,
0,
0,
0,
0,
0,
0,
0,
0,
0,
0,
0,
0,
0,
0,
0,
0,
0,
0,
0,
0,
0,
0,
0,
0,
0,
0,
0,
0,
0,
0,
0,
0,
0,
0,
0,
0,
0,
0,
0,
0,
0,
0,
0,
0,
0,
0,
0,
0,
0,
0,
0,
0,
0,
0,
0,
0,
0,
0,
0,
0,
0,
0,
0,
#ENDOFDATA   :