File: N132962/Quantification/15 keV/GMIIIA/GMIIIA K253[6][4].msa
#FORMAT      : EMSA/MAS Spectral Data File
#VERSION     : 1.0
#TITLE       : GMIIIA K253[6][all]
#DATE        : 22-SEP-2025
#TIME        : 14:46
#OWNER       : Unknown
#NPOINTS     : 4096
#NCOLUMNS    : 1
#XUNITS      : eV
#YUNITS      : counts
#DATATYPE    : Y
#XPERCHAN    : 9.99778
#OFFSET      : 1.69135
#BEAMKV      : 15
#SIGNALTYPE  : EDS
#ELEVANGLE   : 35
#AZIMANGLE   : 0
#LIVETIME    : 239.863
#REALTIME    : 257.003
#PROBECUR    : 1.21732
#TAUWIND     : 0
#TDEADLYR    : 0
#TACTLYR     : 0.045
#TALWIND     : 0.025
#CHOFFSET    : 0.0
#XLABEL      : Energy (eV)
#YLABEL      : Counts
#XPOSITION   : 2.60685
#YPOSITION   : 2.30688
#ZPOSITION   : 37.36299
#EDSDET      : SD
##SPECIMEN   : GMIIIA K253[6][all]
##D2STDCMP   : K253,(O:31.64),(Si:18.7),(Mn:6.32),(Co:1.97),(Cu:2.0),(Zn:8.03),(Ba:31.35)
##DET_HASH   : 12273538-fd48-a23f-0a19-f1e6fa85caef
##CALIB_HASH : 6abaa72c-aa41-8738-0be9-f592914732f3
##WORKING    : 15.0 mm
##DET_NAME   : EDAX All
##DET_MODE   : MediumLE
#SPECTRUM    :
38,
386,
9337,
12455,
80872,
7676,
7758,
24400,
5681,
5140,
5471,
6129,
42806,
21953,
4498,
4362,
4780,
4381,
4277,
4201,
4031,
3735,
3834,
3528,
3584,
3375,
3137,
3021,
3782,
2985,
2817,
4654,
31533,
2911,
7640,
10070,
3132,
6676,
2156,
2737,
2716,
2507,
9802,
2319,
1645,
1585,
2213,
1728,
1406,
2185,
1908,
1275,
1203,
1228,
1239,
1199,
1072,
1710,
1411,
1001,
927,
1965,
2788,
944,
841,
762,
723,
700,
994,
831,
629,
583,
559,
525,
505,
532,
497,
439,
408,
381,
412,
346,
325,
320,
281,
276,
283,
214,
229,
228,
206,
200,
183,
134,
144,
128,
116,
87,
98,
65,
69,
54,
53,
38,
24,
17,
8,
3,
2,
0,
1,
3,
0,
1,
0,
1,
0,
0,
0,
1,
0,
1,
1,
0,
1,
0,
2,
0,
1,
0,
0,
0,
0,
1,
1,
0,
0,
0,
0,
1,
1,
0,
0,
0,
0,
0,
0,
0,
0,
0,
0,
0,
0,
1,
0,
0,
0,
0,
0,
0,
0,
0,
0,
0,
0,
0,
0,
0,
0,
0,
0,
0,
0,
0,
0,
0,
0,
0,
0,
0,
0,
0,
0,
0,
0,
0,
0,
0,
0,
0,
0,
0,
0,
0,
0,
0,
0,
0,
0,
0,
0,
0,
0,
0,
0,
0,
0,
0,
0,
0,
0,
0,
0,
0,
0,
0,
0,
0,
0,
0,
0,
0,
0,
0,
0,
0,
0,
0,
0,
0,
0,
0,
0,
0,
0,
0,
0,
0,
0,
0,
0,
0,
0,
0,
0,
0,
0,
0,
0,
0,
0,
0,
0,
0,
0,
0,
0,
0,
0,
0,
0,
0,
0,
0,
0,
0,
0,
0,
0,
0,
0,
0,
0,
0,
0,
0,
0,
0,
0,
0,
0,
0,
0,
0,
0,
0,
0,
0,
0,
0,
0,
0,
0,
0,
#ENDOFDATA   :