File: N132962/Quantification/15 keV/GMIIIA/GMIIIA K251[3][4].msa
#FORMAT      : EMSA/MAS Spectral Data File
#VERSION     : 1.0
#TITLE       : GMIIIA K251[3][all]
#DATE        : 22-SEP-2025
#TIME        : 14:59
#OWNER       : Unknown
#NPOINTS     : 4096
#NCOLUMNS    : 1
#XUNITS      : eV
#YUNITS      : counts
#DATATYPE    : Y
#XPERCHAN    : 9.99778
#OFFSET      : 1.69135
#BEAMKV      : 15
#SIGNALTYPE  : EDS
#ELEVANGLE   : 35
#AZIMANGLE   : 0
#LIVETIME    : 239.983
#REALTIME    : 259.171
#PROBECUR    : 1.21732
#TAUWIND     : 0
#TDEADLYR    : 0
#TACTLYR     : 0.045
#TALWIND     : 0.025
#CHOFFSET    : 0.0
#XLABEL      : Energy (eV)
#YLABEL      : Counts
#XPOSITION   : 7.15532
#YPOSITION   : 2.47195
#ZPOSITION   : 37.36299
#EDSDET      : SD
##SPECIMEN   : GMIIIA K251[3][all]
##D2STDCMP   : K251,(O:23.02),(Al:1.32),(Si:14.02),(Ba:8.96),(Ta:4.09),(Pb:44.1),(Bi:4.48)
##DET_HASH   : 12273538-fd48-a23f-0a19-f1e6fa85caef
##CALIB_HASH : 6abaa72c-aa41-8738-0be9-f592914732f3
##WORKING    : 15.0 mm
##DET_NAME   : EDAX All
##DET_MODE   : MediumLE
#SPECTRUM    :
28,
546,
12297,
9009,
39869,
7853,
7397,
8109,
7902,
8582,
9787,
12892,
50939,
30292,
7303,
6818,
11901,
78605,
18891,
8857,
4816,
4889,
5643,
4677,
4294,
4190,
4041,
4029,
3973,
3971,
3879,
4138,
11694,
3566,
5062,
5485,
3484,
4432,
2938,
3158,
3052,
2921,
2679,
2572,
2510,
2498,
2405,
2248,
2160,
2045,
2125,
2124,
1986,
1941,
1858,
1794,
1733,
1715,
2310,
1730,
1515,
1505,
1442,
1338,
1361,
1272,
1338,
1335,
1181,
1204,
1105,
1018,
1024,
941,
973,
1620,
1164,
852,
810,
732,
674,
710,
580,
584,
534,
551,
503,
466,
443,
399,
489,
373,
331,
329,
268,
212,
193,
196,
184,
167,
125,
115,
99,
77,
52,
43,
25,
8,
3,
7,
3,
1,
2,
1,
0,
1,
4,
1,
1,
0,
3,
2,
1,
1,
1,
2,
1,
2,
2,
3,
0,
0,
1,
1,
0,
1,
1,
0,
0,
0,
1,
0,
0,
0,
1,
1,
0,
0,
0,
1,
0,
0,
0,
0,
0,
1,
0,
1,
1,
0,
0,
0,
0,
0,
0,
1,
0,
0,
0,
0,
0,
0,
0,
0,
0,
0,
0,
0,
0,
0,
0,
0,
0,
0,
0,
0,
1,
0,
0,
0,
0,
0,
0,
1,
0,
0,
0,
0,
0,
0,
0,
0,
0,
0,
0,
0,
0,
0,
0,
0,
0,
0,
0,
0,
0,
0,
0,
0,
0,
0,
0,
0,
0,
0,
0,
0,
0,
0,
0,
0,
0,
0,
0,
0,
0,
0,
0,
0,
0,
0,
0,
0,
0,
0,
0,
0,
0,
0,
0,
0,
0,
0,
0,
0,
0,
0,
0,
0,
0,
0,
0,
0,
0,
0,
0,
0,
0,
0,
0,
0,
0,
0,
0,
0,
0,
0,
0,
0,
0,
0,
0,
0,
0,
0,
0,
0,
0,
0,
0,
0,
0,
0,
0,
0,
#ENDOFDATA   :