File: N132962/Quantification/15 keV/GMIIIA/GMIIIA K230[2][4].msa
#FORMAT      : EMSA/MAS Spectral Data File
#VERSION     : 1.0
#TITLE       : GMIIIA K230[2][all]
#DATE        : 22-SEP-2025
#TIME        : 14:34
#OWNER       : Unknown
#NPOINTS     : 4096
#NCOLUMNS    : 1
#XUNITS      : eV
#YUNITS      : counts
#DATATYPE    : Y
#XPERCHAN    : 9.99778
#OFFSET      : 1.69135
#BEAMKV      : 15
#SIGNALTYPE  : EDS
#ELEVANGLE   : 35
#AZIMANGLE   : 0
#LIVETIME    : 239.84
#REALTIME    : 258.605
#PROBECUR    : 1.21983
#TAUWIND     : 0
#TDEADLYR    : 0
#TACTLYR     : 0.045
#TALWIND     : 0.025
#CHOFFSET    : 0.0
#XLABEL      : Energy (eV)
#YLABEL      : Counts
#XPOSITION   : 3.84285
#YPOSITION   : 0.86714
#ZPOSITION   : 37.36299
#EDSDET      : SD
##SPECIMEN   : GMIIIA K230[2][all]
##D2STDCMP   : K230,(O:24.49),(Al:2.65),(Si:14.02),(Zn:4.02),(Ba:8.96),(Ta:4.09),(Pb:41.77)
##DET_HASH   : 12273538-fd48-a23f-0a19-f1e6fa85caef
##CALIB_HASH : 6abaa72c-aa41-8738-0be9-f592914732f3
##WORKING    : 15.0 mm
##DET_NAME   : EDAX All
##DET_MODE   : MediumLE
#SPECTRUM    :
23,
464,
12842,
9195,
44287,
7541,
7382,
16993,
7732,
7923,
9447,
15256,
47840,
28238,
7586,
6719,
11070,
68416,
13210,
8234,
4538,
4682,
5363,
4480,
4107,
4135,
3781,
3923,
3853,
3797,
3542,
4043,
11222,
3404,
4586,
5287,
3206,
4163,
2884,
2912,
3029,
2784,
2568,
2429,
2277,
2288,
2213,
2138,
2014,
2001,
1967,
1877,
1797,
1744,
1695,
1608,
1570,
1642,
2144,
1555,
1442,
1970,
2368,
1236,
1199,
1238,
1185,
1310,
1277,
1143,
984,
954,
883,
844,
902,
1357,
1072,
706,
671,
661,
626,
566,
580,
523,
461,
454,
407,
382,
354,
353,
455,
310,
266,
288,
211,
214,
190,
152,
123,
117,
112,
96,
74,
61,
45,
32,
20,
8,
3,
2,
2,
3,
1,
2,
1,
0,
0,
2,
0,
2,
1,
2,
1,
1,
1,
1,
2,
0,
1,
1,
2,
0,
0,
2,
0,
0,
0,
0,
1,
2,
0,
1,
0,
0,
0,
1,
0,
0,
0,
0,
0,
0,
1,
0,
0,
0,
0,
0,
0,
0,
0,
0,
0,
0,
0,
0,
0,
0,
0,
0,
0,
0,
0,
0,
0,
0,
0,
0,
0,
0,
0,
0,
0,
0,
0,
0,
0,
0,
0,
0,
0,
0,
0,
0,
0,
0,
0,
0,
0,
0,
0,
0,
0,
0,
0,
0,
0,
0,
0,
0,
0,
0,
0,
0,
0,
0,
0,
0,
0,
0,
0,
0,
0,
0,
0,
0,
0,
0,
0,
0,
0,
0,
0,
0,
0,
0,
0,
0,
0,
0,
0,
0,
0,
0,
0,
0,
0,
0,
0,
0,
0,
0,
0,
0,
0,
0,
0,
0,
0,
0,
0,
0,
0,
0,
0,
0,
0,
0,
0,
0,
0,
0,
0,
0,
0,
0,
0,
0,
0,
0,
0,
0,
0,
0,
0,
0,
0,
0,
0,
0,
0,
0,
0,
0,
#ENDOFDATA   :