File: N132962/Quantification/15 keV/GMIIIA/GMIIIA K229[0][4].msa
#FORMAT      : EMSA/MAS Spectral Data File
#VERSION     : 1.0
#TITLE       : GMIIIA K229[0][all]
#DATE        : 22-SEP-2025
#TIME        : 14:23
#OWNER       : Unknown
#NPOINTS     : 4096
#NCOLUMNS    : 1
#XUNITS      : eV
#YUNITS      : counts
#DATATYPE    : Y
#XPERCHAN    : 9.99778
#OFFSET      : 1.69135
#BEAMKV      : 15
#SIGNALTYPE  : EDS
#ELEVANGLE   : 35
#AZIMANGLE   : 0
#LIVETIME    : 239.906
#REALTIME    : 260.1414
#PROBECUR    : 1.21983
#TAUWIND     : 0
#TDEADLYR    : 0
#TACTLYR     : 0.045
#TALWIND     : 0.025
#CHOFFSET    : 0.0
#XLABEL      : Energy (eV)
#YLABEL      : Counts
#XPOSITION   : 5.92752
#YPOSITION   : 0.71367
#ZPOSITION   : 37.36299
#EDSDET      : SD
##SPECIMEN   : GMIIIA K229[0][all]
##D2STDCMP   : K229,(O:20.99),(Si:14.02),(Pb:64.98)
##DET_HASH   : 12273538-fd48-a23f-0a19-f1e6fa85caef
##CALIB_HASH : 6abaa72c-aa41-8738-0be9-f592914732f3
##WORKING    : 15.0 mm
##DET_NAME   : EDAX All
##DET_MODE   : MediumLE
#SPECTRUM    :
23,
551,
13004,
8560,
34034,
8705,
7590,
8083,
8590,
9201,
9637,
10240,
45174,
33517,
7750,
7679,
15621,
115577,
19624,
10512,
4719,
5194,
6154,
4772,
4567,
4451,
4187,
4142,
4161,
4072,
4118,
3787,
4077,
3786,
3653,
3474,
3357,
3382,
3307,
3152,
3138,
2994,
2913,
2928,
2715,
2712,
2623,
2674,
2440,
2393,
2347,
2287,
2199,
2227,
2123,
1872,
1910,
1826,
1734,
1647,
1700,
1626,
1552,
1503,
1504,
1483,
1455,
1328,
1255,
1227,
1125,
1119,
1062,
1083,
1091,
2059,
1442,
853,
812,
742,
802,
689,
690,
671,
620,
585,
564,
506,
425,
483,
635,
439,
343,
345,
274,
232,
241,
206,
198,
166,
152,
146,
108,
72,
62,
59,
19,
11,
4,
5,
1,
2,
1,
0,
1,
3,
0,
1,
0,
0,
2,
3,
2,
0,
2,
1,
3,
2,
2,
6,
2,
1,
1,
2,
2,
2,
0,
1,
0,
1,
0,
1,
1,
0,
0,
0,
0,
0,
0,
0,
0,
0,
0,
1,
0,
0,
1,
0,
0,
1,
0,
0,
0,
0,
0,
0,
0,
0,
0,
0,
0,
0,
0,
0,
0,
0,
0,
0,
0,
0,
1,
0,
0,
0,
0,
0,
0,
0,
0,
0,
0,
0,
0,
0,
0,
0,
0,
0,
0,
0,
0,
0,
0,
0,
0,
0,
0,
0,
0,
0,
0,
0,
0,
0,
0,
0,
0,
0,
0,
0,
0,
0,
0,
0,
0,
0,
0,
0,
0,
0,
0,
0,
0,
0,
0,
0,
0,
0,
0,
0,
0,
0,
0,
0,
0,
0,
0,
0,
0,
0,
0,
0,
0,
0,
0,
0,
0,
0,
0,
0,
0,
0,
0,
0,
0,
0,
0,
0,
0,
0,
0,
0,
0,
0,
0,
0,
0,
0,
0,
0,
0,
0,
0,
0,
0,
0,
0,
0,
0,
0,
0,
0,
0,
0,
#ENDOFDATA   :