File: N132962/Quantification/15 keV/GMIIIA/GMIIIA K227[0][4].msa
#FORMAT      : EMSA/MAS Spectral Data File
#VERSION     : 1.0
#TITLE       : GMIIIA K227[0][all]
#DATE        : 22-SEP-2025
#TIME        : 14:15
#OWNER       : Unknown
#NPOINTS     : 4096
#NCOLUMNS    : 1
#XUNITS      : eV
#YUNITS      : counts
#DATATYPE    : Y
#XPERCHAN    : 9.99778
#OFFSET      : 1.69135
#BEAMKV      : 15
#SIGNALTYPE  : EDS
#ELEVANGLE   : 35
#AZIMANGLE   : 0
#LIVETIME    : 240.041
#REALTIME    : 261.289
#PROBECUR    : 1.21983
#TAUWIND     : 0
#TDEADLYR    : 0
#TACTLYR     : 0.045
#TALWIND     : 0.025
#CHOFFSET    : 0.0
#XLABEL      : Energy (eV)
#YLABEL      : Counts
#XPOSITION   : 7.71643
#YPOSITION   : 0.38332
#ZPOSITION   : 37.36299
#EDSDET      : SD
##SPECIMEN   : GMIIIA K227[0][all]
##D2STDCMP   : K227,(O:16.39),(Si:9.35),(Pb:74.27)
##DET_HASH   : 12273538-fd48-a23f-0a19-f1e6fa85caef
##CALIB_HASH : 6abaa72c-aa41-8738-0be9-f592914732f3
##WORKING    : 15.0 mm
##DET_NAME   : EDAX All
##DET_MODE   : MediumLE
#SPECTRUM    :
22,
773,
14307,
8447,
28682,
10590,
8213,
8634,
9167,
9967,
10338,
10822,
34927,
30997,
8770,
8819,
18101,
136929,
22855,
11695,
5302,
5609,
6890,
5208,
4924,
4937,
4649,
4638,
4505,
4493,
4458,
4295,
4413,
4138,
4212,
4034,
3891,
3730,
3615,
3650,
3482,
3418,
3275,
3226,
3124,
3056,
3000,
2873,
2760,
2664,
2694,
2541,
2419,
2507,
2396,
2281,
2111,
2127,
1938,
1949,
1918,
1813,
1851,
1781,
1640,
1625,
1578,
1459,
1488,
1486,
1401,
1332,
1283,
1199,
1346,
2473,
1748,
1006,
960,
908,
886,
791,
829,
732,
728,
672,
628,
665,
569,
577,
737,
511,
448,
390,
324,
298,
277,
267,
235,
187,
189,
171,
123,
104,
68,
58,
36,
8,
8,
5,
6,
1,
7,
4,
6,
6,
0,
2,
2,
1,
0,
0,
0,
2,
2,
2,
1,
3,
5,
2,
1,
0,
0,
0,
2,
2,
1,
0,
1,
0,
1,
0,
0,
0,
0,
1,
0,
1,
0,
1,
1,
0,
0,
1,
0,
0,
0,
0,
0,
0,
0,
0,
0,
0,
0,
1,
0,
0,
1,
0,
0,
0,
0,
0,
1,
1,
0,
0,
0,
0,
0,
0,
0,
0,
0,
0,
0,
0,
0,
0,
0,
0,
0,
0,
0,
0,
0,
0,
0,
0,
0,
0,
0,
0,
0,
0,
0,
0,
0,
0,
0,
0,
0,
0,
0,
0,
0,
0,
0,
0,
0,
0,
0,
0,
0,
0,
0,
0,
0,
0,
0,
0,
0,
0,
0,
0,
0,
0,
0,
0,
0,
0,
0,
0,
0,
0,
0,
0,
0,
0,
0,
0,
0,
0,
0,
0,
0,
0,
0,
0,
0,
0,
0,
0,
0,
0,
0,
0,
0,
0,
0,
0,
0,
0,
0,
0,
0,
0,
0,
0,
0,
0,
0,
0,
0,
0,
0,
0,
0,
0,
0,
0,
0,
0,
#ENDOFDATA   :