File: N132962/Quantification/15 keV/GMIIIA/GMIIIA K1236[1][4].msa
#FORMAT      : EMSA/MAS Spectral Data File
#VERSION     : 1.0
#TITLE       : GMIIIA K1236[1][all]
#DATE        : 22-SEP-2025
#TIME        : 23:05
#OWNER       : Unknown
#NPOINTS     : 4096
#NCOLUMNS    : 1
#XUNITS      : eV
#YUNITS      : counts
#DATATYPE    : Y
#XPERCHAN    : 9.99778
#OFFSET      : 1.69135
#BEAMKV      : 15
#SIGNALTYPE  : EDS
#ELEVANGLE   : 35
#AZIMANGLE   : 0
#LIVETIME    : 239.9036
#REALTIME    : 258.863
#PROBECUR    : 1.21388
#TAUWIND     : 0
#TDEADLYR    : 0
#TACTLYR     : 0.045
#TALWIND     : 0.025
#CHOFFSET    : 0.0
#XLABEL      : Energy (eV)
#YLABEL      : Counts
#XPOSITION   : 7.20446
#YPOSITION   : 18.97139
#ZPOSITION   : 37.36299
#EDSDET      : SD
##SPECIMEN   : GMIIIA K1236[1][all]
##D2STDCMP   : K1236,(O:21.27),(Sc:0.65),(Ge:40.95),(Pb:37.13)
##DET_HASH   : 12273538-fd48-a23f-0a19-f1e6fa85caef
##CALIB_HASH : 6abaa72c-aa41-8738-0be9-f592914732f3
##WORKING    : 15.0 mm
##DET_NAME   : EDAX All
##DET_MODE   : MediumLE
#SPECTRUM    :
28,
455,
11263,
8784,
36321,
7762,
8478,
11828,
35866,
53344,
6326,
6414,
7084,
10783,
6415,
6496,
10538,
63501,
12724,
8152,
4814,
5001,
5582,
4567,
4246,
4298,
4189,
3982,
3938,
5191,
3740,
3720,
3980,
3364,
3372,
3250,
3100,
3152,
2917,
3013,
2837,
2696,
2651,
2514,
2450,
2340,
2393,
2297,
2048,
2079,
1993,
1936,
1880,
1857,
1771,
1776,
1683,
1645,
1579,
1537,
1471,
1383,
1325,
1291,
1213,
1240,
1208,
1155,
1057,
1192,
5431,
5335,
954,
883,
912,
1470,
1135,
802,
1447,
1214,
622,
548,
516,
504,
516,
484,
436,
434,
363,
414,
445,
320,
306,
280,
237,
210,
207,
190,
148,
140,
118,
112,
88,
74,
57,
39,
21,
12,
3,
5,
2,
4,
3,
2,
3,
1,
1,
1,
3,
0,
1,
2,
1,
1,
1,
3,
0,
1,
0,
2,
1,
0,
1,
2,
0,
0,
0,
0,
0,
0,
0,
3,
0,
0,
0,
1,
0,
0,
1,
3,
1,
0,
0,
1,
0,
0,
0,
0,
1,
0,
0,
0,
0,
0,
0,
0,
0,
0,
0,
0,
0,
0,
0,
0,
0,
0,
0,
0,
0,
0,
0,
0,
0,
0,
0,
0,
0,
0,
0,
0,
0,
0,
0,
0,
0,
0,
0,
0,
0,
0,
0,
0,
0,
0,
0,
0,
0,
0,
0,
0,
0,
0,
0,
0,
0,
0,
0,
0,
0,
0,
0,
0,
0,
0,
0,
0,
0,
0,
0,
0,
0,
0,
0,
0,
0,
0,
0,
0,
0,
0,
0,
0,
0,
0,
0,
0,
0,
0,
0,
0,
0,
0,
0,
0,
0,
0,
0,
0,
0,
0,
0,
0,
0,
0,
0,
0,
0,
0,
0,
0,
0,
0,
0,
0,
0,
0,
0,
0,
0,
0,
0,
0,
0,
0,
0,
0,
0,
0,
0,
0,
0,
0,
0,
0,
#ENDOFDATA   :