File: N132962/Quantification/15 keV/GMIIIA/GMIIIA K1236[4][4].msa
#FORMAT      : EMSA/MAS Spectral Data File
#VERSION     : 1.0
#TITLE       : GMIIIA K1236[4][all]
#DATE        : 22-SEP-2025
#TIME        : 23:09
#OWNER       : Unknown
#NPOINTS     : 4096
#NCOLUMNS    : 1
#XUNITS      : eV
#YUNITS      : counts
#DATATYPE    : Y
#XPERCHAN    : 9.99778
#OFFSET      : 1.69135
#BEAMKV      : 15
#SIGNALTYPE  : EDS
#ELEVANGLE   : 35
#AZIMANGLE   : 0
#LIVETIME    : 239.92
#REALTIME    : 258.858
#PROBECUR    : 1.21388
#TAUWIND     : 0
#TDEADLYR    : 0
#TACTLYR     : 0.045
#TALWIND     : 0.025
#CHOFFSET    : 0.0
#XLABEL      : Energy (eV)
#YLABEL      : Counts
#XPOSITION   : 7.24105
#YPOSITION   : 19.01764
#ZPOSITION   : 37.36299
#EDSDET      : SD
##SPECIMEN   : GMIIIA K1236[4][all]
##D2STDCMP   : K1236,(O:21.27),(Sc:0.65),(Ge:40.95),(Pb:37.13)
##DET_HASH   : 12273538-fd48-a23f-0a19-f1e6fa85caef
##CALIB_HASH : 6abaa72c-aa41-8738-0be9-f592914732f3
##WORKING    : 15.0 mm
##DET_NAME   : EDAX All
##DET_MODE   : MediumLE
#SPECTRUM    :
24,
439,
10952,
8719,
36813,
7748,
8271,
11685,
35771,
53958,
6379,
6558,
7338,
11054,
6305,
6409,
10584,
63689,
12710,
8259,
4743,
5101,
5528,
4599,
4250,
4267,
4258,
4010,
3940,
5217,
3871,
3603,
3927,
3418,
3326,
3308,
3139,
3061,
2985,
2818,
2722,
2690,
2585,
2494,
2433,
2434,
2308,
2194,
2213,
2094,
2019,
1982,
1902,
1857,
1759,
1749,
1640,
1634,
1548,
1520,
1422,
1437,
1335,
1306,
1275,
1249,
1191,
1135,
1071,
1138,
5371,
5311,
1063,
944,
931,
1413,
1068,
791,
1476,
1158,
634,
582,
566,
538,
486,
434,
444,
445,
378,
392,
454,
324,
307,
281,
244,
218,
217,
187,
161,
153,
111,
107,
104,
75,
59,
34,
29,
9,
7,
0,
2,
1,
5,
2,
1,
1,
1,
1,
1,
0,
0,
1,
1,
3,
0,
1,
1,
0,
2,
1,
1,
0,
0,
1,
1,
0,
1,
0,
1,
1,
1,
1,
1,
0,
1,
1,
3,
1,
1,
0,
0,
0,
1,
0,
0,
0,
0,
0,
1,
0,
1,
1,
1,
0,
0,
0,
0,
0,
0,
0,
0,
0,
0,
0,
0,
0,
0,
0,
0,
0,
0,
0,
0,
0,
0,
0,
0,
0,
0,
0,
0,
0,
0,
0,
0,
0,
0,
0,
0,
0,
0,
0,
0,
0,
0,
0,
0,
0,
0,
0,
0,
0,
0,
0,
0,
0,
0,
0,
0,
0,
0,
0,
0,
0,
0,
0,
0,
0,
0,
0,
0,
0,
0,
0,
0,
0,
0,
0,
0,
0,
0,
0,
0,
0,
0,
0,
0,
0,
0,
0,
0,
0,
0,
0,
0,
0,
0,
0,
0,
0,
0,
0,
0,
0,
0,
0,
0,
0,
0,
0,
0,
0,
0,
0,
0,
0,
0,
0,
0,
0,
0,
0,
0,
0,
0,
0,
0,
0,
0,
0,
0,
0,
0,
0,
#ENDOFDATA   :