File: N132962/Quantification/15 keV/GMIIIA/GMIIIA K252[6][4].msa
#FORMAT      : EMSA/MAS Spectral Data File
#VERSION     : 1.0
#TITLE       : GMIIIA K252[6][all]
#DATE        : 22-SEP-2025
#TIME        : 14:54
#OWNER       : Unknown
#NPOINTS     : 4096
#NCOLUMNS    : 1
#XUNITS      : eV
#YUNITS      : counts
#DATATYPE    : Y
#XPERCHAN    : 9.99778
#OFFSET      : 1.69135
#BEAMKV      : 15
#SIGNALTYPE  : EDS
#ELEVANGLE   : 35
#AZIMANGLE   : 0
#LIVETIME    : 239.946
#REALTIME    : 257.0694
#PROBECUR    : 1.21732
#TAUWIND     : 0
#TDEADLYR    : 0
#TACTLYR     : 0.045
#TALWIND     : 0.025
#CHOFFSET    : 0.0
#XLABEL      : Energy (eV)
#YLABEL      : Counts
#XPOSITION   : 4.71132
#YPOSITION   : 2.58129
#ZPOSITION   : 37.36299
#EDSDET      : SD
##SPECIMEN   : GMIIIA K252[6][all]
##D2STDCMP   : K252,(O:30.83),(Si:18.7),(Mn:3.16),(Co:3.93),(Cu:3.99),(Zn:8.03),(Ba:31.35)
##DET_HASH   : 12273538-fd48-a23f-0a19-f1e6fa85caef
##CALIB_HASH : 6abaa72c-aa41-8738-0be9-f592914732f3
##WORKING    : 15.0 mm
##DET_NAME   : EDAX All
##DET_MODE   : MediumLE
#SPECTRUM    :
23,
355,
9078,
12456,
79461,
8231,
8878,
26274,
5431,
5012,
5429,
6310,
42620,
22088,
4261,
4338,
4770,
4327,
4216,
4218,
4052,
3847,
3780,
3632,
3320,
3376,
3265,
3037,
3713,
3084,
2871,
4511,
30906,
2930,
7499,
10088,
3215,
6718,
2181,
2761,
2640,
2350,
5823,
2061,
1574,
1568,
1887,
1704,
1450,
2944,
2474,
1251,
1213,
1238,
1309,
1348,
1094,
2206,
1802,
965,
950,
2074,
2821,
986,
911,
762,
747,
674,
946,
793,
600,
574,
555,
527,
502,
517,
496,
467,
389,
384,
388,
322,
355,
309,
306,
251,
269,
241,
239,
217,
212,
181,
166,
156,
131,
140,
126,
90,
88,
70,
76,
57,
52,
39,
29,
21,
12,
5,
0,
3,
1,
1,
2,
1,
1,
0,
1,
1,
1,
1,
0,
0,
3,
0,
0,
0,
1,
0,
0,
1,
0,
0,
1,
0,
0,
0,
0,
0,
0,
0,
0,
0,
0,
1,
0,
0,
1,
0,
0,
0,
0,
0,
1,
0,
0,
0,
0,
0,
0,
0,
1,
0,
0,
0,
0,
0,
0,
0,
0,
0,
0,
0,
0,
0,
0,
0,
0,
0,
0,
0,
0,
0,
0,
0,
0,
0,
0,
0,
0,
0,
0,
0,
0,
1,
0,
0,
0,
0,
0,
0,
0,
0,
0,
0,
0,
0,
0,
0,
0,
0,
0,
0,
0,
0,
0,
0,
0,
0,
0,
0,
0,
0,
0,
0,
0,
0,
0,
0,
0,
0,
0,
0,
0,
0,
0,
0,
0,
0,
0,
0,
0,
0,
0,
0,
0,
0,
0,
0,
0,
0,
0,
0,
0,
0,
0,
0,
0,
0,
0,
0,
0,
0,
0,
0,
0,
0,
0,
0,
0,
0,
0,
0,
0,
0,
0,
0,
0,
0,
0,
0,
0,
0,
0,
0,
0,
0,
0,
0,
0,
0,
0,
0,
0,
0,
#ENDOFDATA   :