File: N132962/Quantification/15 keV/GMIIIA/GMIIIA K1235[4][4].msa
#FORMAT      : EMSA/MAS Spectral Data File
#VERSION     : 1.0
#TITLE       : GMIIIA K1235[4][all]
#DATE        : 22-SEP-2025
#TIME        : 23:19
#OWNER       : Unknown
#NPOINTS     : 4096
#NCOLUMNS    : 1
#XUNITS      : eV
#YUNITS      : counts
#DATATYPE    : Y
#XPERCHAN    : 9.99778
#OFFSET      : 1.69135
#BEAMKV      : 15
#SIGNALTYPE  : EDS
#ELEVANGLE   : 35
#AZIMANGLE   : 0
#LIVETIME    : 240.014
#REALTIME    : 255.9087
#PROBECUR    : 1.21388
#TAUWIND     : 0
#TDEADLYR    : 0
#TACTLYR     : 0.045
#TALWIND     : 0.025
#CHOFFSET    : 0.0
#XLABEL      : Energy (eV)
#YLABEL      : Counts
#XPOSITION   : 9.32632
#YPOSITION   : 18.97791
#ZPOSITION   : 37.36299
#EDSDET      : SD
##SPECIMEN   : GMIIIA K1235[4][all]
##D2STDCMP   : K1235,(O:39.17),(Al:8.86),(Si:21.16),(Ca:12.15),(Pd:1.74),(Ba:15.23),(Hf:1.7)
##DET_HASH   : 12273538-fd48-a23f-0a19-f1e6fa85caef
##CALIB_HASH : 6abaa72c-aa41-8738-0be9-f592914732f3
##WORKING    : 15.0 mm
##DET_NAME   : EDAX All
##DET_MODE   : MediumLE
#SPECTRUM    :
33,
305,
10773,
8385,
63990,
4186,
4696,
5796,
5154,
5639,
9932,
28547,
52686,
23886,
4038,
3519,
3858,
3331,
3224,
3143,
3008,
2854,
2812,
2880,
2587,
2793,
23638,
9057,
3424,
5352,
2131,
2690,
14368,
1865,
3881,
5000,
1940,
3441,
1462,
1780,
1710,
1494,
1327,
1196,
1143,
1035,
1088,
1052,
972,
944,
942,
857,
824,
805,
824,
736,
971,
763,
653,
629,
615,
606,
561,
506,
574,
511,
485,
514,
451,
448,
422,
407,
376,
348,
330,
368,
317,
290,
274,
229,
213,
199,
222,
209,
169,
176,
179,
149,
161,
141,
107,
108,
108,
79,
77,
80,
72,
57,
59,
54,
49,
35,
24,
21,
10,
7,
6,
3,
0,
1,
0,
2,
0,
1,
1,
0,
0,
1,
1,
0,
0,
0,
1,
0,
2,
0,
0,
2,
0,
0,
0,
0,
0,
0,
0,
0,
0,
0,
0,
0,
0,
0,
0,
0,
0,
0,
0,
0,
0,
1,
0,
0,
0,
0,
0,
0,
0,
0,
0,
0,
0,
0,
0,
0,
0,
0,
0,
0,
0,
0,
0,
0,
0,
0,
0,
0,
0,
0,
0,
0,
0,
0,
0,
0,
0,
0,
0,
0,
0,
0,
0,
0,
0,
0,
0,
0,
0,
0,
0,
0,
0,
0,
0,
0,
0,
0,
0,
0,
0,
0,
0,
0,
0,
0,
0,
0,
0,
0,
0,
0,
0,
0,
0,
0,
0,
0,
0,
0,
0,
0,
0,
0,
0,
0,
0,
0,
0,
0,
0,
0,
0,
0,
0,
0,
0,
0,
0,
0,
0,
0,
0,
0,
0,
0,
0,
0,
0,
0,
0,
0,
0,
0,
0,
0,
0,
0,
0,
0,
0,
0,
0,
0,
0,
0,
0,
0,
0,
0,
0,
0,
1,
0,
0,
0,
0,
0,
0,
0,
0,
0,
0,
0,
0,
0,
#ENDOFDATA   :