File: N132962/Quantification/15 keV/GMIIIA/GMIIIA K240[5][4].msa
#FORMAT      : EMSA/MAS Spectral Data File
#VERSION     : 1.0
#TITLE       : GMIIIA K240[5][all]
#DATE        : 22-SEP-2025
#TIME        : 15:18
#OWNER       : Unknown
#NPOINTS     : 4096
#NCOLUMNS    : 1
#XUNITS      : eV
#YUNITS      : counts
#DATATYPE    : Y
#XPERCHAN    : 9.99778
#OFFSET      : 1.69135
#BEAMKV      : 15
#SIGNALTYPE  : EDS
#ELEVANGLE   : 35
#AZIMANGLE   : 0
#LIVETIME    : 239.971
#REALTIME    : 256.043
#PROBECUR    : 1.21681
#TAUWIND     : 0
#TDEADLYR    : 0
#TACTLYR     : 0.045
#TALWIND     : 0.025
#CHOFFSET    : 0.0
#XLABEL      : Energy (eV)
#YLABEL      : Counts
#XPOSITION   : 11.34763
#YPOSITION   : 1.7116
#ZPOSITION   : 37.36299
#EDSDET      : SD
##SPECIMEN   : GMIIIA K240[5][all]
##D2STDCMP   : K240,(O:34.0),(Mg:3.02),(Si:18.7),(Ti:6.0),(Zn:4.02),(Zr:7.4),(Ba:26.87)
##DET_HASH   : 12273538-fd48-a23f-0a19-f1e6fa85caef
##CALIB_HASH : 6abaa72c-aa41-8738-0be9-f592914732f3
##WORKING    : 15.0 mm
##DET_NAME   : EDAX All
##DET_MODE   : MediumLE
#SPECTRUM    :
24,
408,
9438,
13720,
64156,
5343,
6137,
14803,
5673,
23148,
5491,
6384,
44154,
23234,
6918,
15250,
5440,
3966,
4008,
3743,
3663,
3604,
3400,
3159,
3147,
3064,
2973,
2862,
3436,
2739,
2557,
4188,
37262,
3833,
6463,
9711,
3039,
5436,
1954,
2477,
2396,
1980,
1864,
1525,
1446,
1449,
1338,
1346,
1220,
1308,
1155,
1146,
1093,
1039,
1003,
973,
934,
952,
918,
842,
850,
1385,
1710,
724,
683,
697,
633,
625,
751,
669,
560,
513,
535,
462,
502,
442,
394,
392,
378,
332,
322,
336,
303,
281,
251,
239,
243,
224,
161,
210,
160,
158,
173,
165,
122,
120,
91,
95,
74,
61,
67,
46,
33,
27,
22,
15,
10,
5,
1,
1,
0,
0,
0,
1,
0,
0,
0,
0,
3,
0,
0,
1,
0,
0,
1,
0,
2,
0,
1,
0,
0,
0,
0,
0,
1,
1,
1,
0,
0,
0,
0,
1,
0,
0,
0,
0,
0,
0,
0,
0,
0,
0,
0,
0,
0,
0,
0,
0,
0,
0,
0,
0,
0,
0,
0,
0,
0,
0,
0,
0,
0,
0,
0,
1,
0,
0,
0,
0,
0,
0,
0,
0,
0,
0,
0,
0,
0,
0,
0,
0,
0,
0,
0,
0,
0,
0,
0,
0,
0,
0,
0,
0,
0,
0,
0,
0,
0,
0,
0,
0,
0,
0,
0,
0,
0,
0,
0,
0,
0,
0,
0,
0,
0,
0,
0,
0,
0,
0,
0,
0,
0,
0,
0,
0,
0,
0,
0,
0,
0,
0,
0,
0,
0,
0,
0,
0,
0,
0,
0,
0,
0,
0,
0,
0,
0,
0,
0,
0,
0,
0,
0,
0,
0,
0,
0,
0,
0,
0,
0,
0,
0,
0,
0,
0,
0,
0,
0,
0,
0,
0,
0,
0,
0,
0,
0,
0,
0,
0,
0,
0,
0,
0,
0,
0,
#ENDOFDATA   :