File: N132962/Quantification/15 keV/GMIIIA/GMIIIA K230[1][4].msa
#FORMAT      : EMSA/MAS Spectral Data File
#VERSION     : 1.0
#TITLE       : GMIIIA K230[1][all]
#DATE        : 22-SEP-2025
#TIME        : 14:32
#OWNER       : Unknown
#NPOINTS     : 4096
#NCOLUMNS    : 1
#XUNITS      : eV
#YUNITS      : counts
#DATATYPE    : Y
#XPERCHAN    : 9.99778
#OFFSET      : 1.69135
#BEAMKV      : 15
#SIGNALTYPE  : EDS
#ELEVANGLE   : 35
#AZIMANGLE   : 0
#LIVETIME    : 239.831
#REALTIME    : 258.577
#PROBECUR    : 1.21983
#TAUWIND     : 0
#TDEADLYR    : 0
#TACTLYR     : 0.045
#TALWIND     : 0.025
#CHOFFSET    : 0.0
#XLABEL      : Energy (eV)
#YLABEL      : Counts
#XPOSITION   : 3.8564
#YPOSITION   : 0.84958
#ZPOSITION   : 37.36299
#EDSDET      : SD
##SPECIMEN   : GMIIIA K230[1][all]
##D2STDCMP   : K230,(O:24.49),(Al:2.65),(Si:14.02),(Zn:4.02),(Ba:8.96),(Ta:4.09),(Pb:41.77)
##DET_HASH   : 12273538-fd48-a23f-0a19-f1e6fa85caef
##CALIB_HASH : 6abaa72c-aa41-8738-0be9-f592914732f3
##WORKING    : 15.0 mm
##DET_NAME   : EDAX All
##DET_MODE   : MediumLE
#SPECTRUM    :
28,
475,
12822,
9257,
43478,
7579,
7652,
17062,
7836,
8009,
9585,
15281,
47991,
28150,
7473,
6590,
11159,
69163,
13183,
8461,
4595,
4781,
5417,
4424,
4061,
4101,
3974,
3874,
3885,
3657,
3767,
3900,
11237,
3360,
4700,
5174,
3260,
4152,
2857,
3017,
2868,
2633,
2518,
2423,
2351,
2255,
2259,
2128,
2082,
1886,
1933,
1912,
1883,
1782,
1726,
1659,
1531,
1503,
2158,
1601,
1356,
2003,
2410,
1258,
1175,
1227,
1199,
1234,
1234,
1163,
975,
943,
884,
895,
844,
1444,
1083,
745,
671,
645,
613,
583,
572,
496,
473,
473,
416,
422,
357,
372,
455,
309,
274,
264,
236,
177,
206,
152,
146,
144,
99,
89,
92,
74,
41,
23,
21,
8,
2,
3,
5,
2,
4,
3,
0,
0,
1,
2,
1,
1,
0,
2,
0,
0,
0,
1,
1,
1,
2,
0,
0,
2,
2,
0,
0,
0,
1,
1,
1,
0,
0,
1,
0,
0,
0,
0,
0,
0,
1,
1,
0,
0,
0,
0,
0,
0,
0,
0,
0,
0,
0,
0,
0,
0,
0,
0,
0,
0,
0,
0,
0,
0,
1,
0,
0,
0,
0,
0,
0,
0,
0,
0,
0,
0,
0,
0,
0,
0,
0,
0,
0,
0,
0,
0,
0,
0,
0,
0,
0,
0,
0,
0,
0,
0,
0,
0,
0,
0,
0,
1,
0,
0,
0,
0,
0,
0,
0,
0,
0,
0,
0,
0,
0,
0,
0,
0,
0,
0,
0,
0,
0,
0,
0,
0,
0,
0,
0,
0,
0,
0,
0,
0,
0,
0,
0,
0,
0,
0,
0,
0,
0,
0,
0,
0,
0,
0,
0,
0,
0,
0,
0,
0,
0,
0,
0,
0,
0,
0,
0,
0,
0,
0,
0,
0,
0,
0,
0,
0,
0,
0,
0,
0,
0,
0,
0,
0,
0,
0,
0,
0,
0,
0,
0,
0,
#ENDOFDATA   :