File: N132962/Quantification/15 keV/GMIIIA/GMIIIA K1053[6][4].msa
#FORMAT      : EMSA/MAS Spectral Data File
#VERSION     : 1.0
#TITLE       : GMIIIA K1053[6][all]
#DATE        : 22-SEP-2025
#TIME        : 21:17
#OWNER       : Unknown
#NPOINTS     : 4096
#NCOLUMNS    : 1
#XUNITS      : eV
#YUNITS      : counts
#DATATYPE    : Y
#XPERCHAN    : 9.99778
#OFFSET      : 1.69135
#BEAMKV      : 15
#SIGNALTYPE  : EDS
#ELEVANGLE   : 35
#AZIMANGLE   : 0
#LIVETIME    : 239.963
#REALTIME    : 261.0916
#PROBECUR    : 1.21822
#TAUWIND     : 0
#TDEADLYR    : 0
#TACTLYR     : 0.045
#TALWIND     : 0.025
#CHOFFSET    : 0.0
#XLABEL      : Energy (eV)
#YLABEL      : Counts
#XPOSITION   : 4.53986
#YPOSITION   : 15.44457
#ZPOSITION   : 37.36299
#EDSDET      : SD
##SPECIMEN   : GMIIIA K1053[6][all]
##D2STDCMP   : K1053,(O:16.13),(F:0.39),(Si:9.35),(Cl:0.64),(Br:1.09),(I:1.37),(Pb:71.02)
##DET_HASH   : 12273538-fd48-a23f-0a19-f1e6fa85caef
##CALIB_HASH : 6abaa72c-aa41-8738-0be9-f592914732f3
##WORKING    : 15.0 mm
##DET_NAME   : EDAX All
##DET_MODE   : MediumLE
#SPECTRUM    :
29,
748,
14593,
8434,
27987,
10600,
8250,
8770,
9265,
9805,
10713,
13155,
34339,
29705,
8665,
8913,
17579,
132279,
22282,
13537,
5374,
5590,
6886,
5299,
4876,
4787,
4651,
4724,
5654,
4589,
4906,
4387,
4658,
4085,
4237,
4069,
3812,
3690,
3615,
3474,
3342,
3239,
3254,
3187,
3152,
3042,
3024,
2756,
2732,
2669,
2550,
2630,
2450,
2440,
2315,
2213,
2167,
2047,
1990,
2017,
1915,
1881,
1791,
1635,
1622,
1607,
1639,
1417,
1520,
1491,
1336,
1305,
1315,
1177,
1317,
2466,
1746,
1048,
947,
876,
910,
859,
778,
795,
713,
668,
673,
614,
545,
542,
709,
499,
414,
400,
324,
300,
293,
268,
256,
197,
180,
141,
118,
111,
71,
50,
35,
7,
3,
5,
5,
5,
1,
2,
1,
3,
3,
2,
1,
3,
1,
2,
0,
0,
1,
1,
0,
3,
0,
4,
3,
0,
0,
1,
2,
1,
0,
0,
2,
2,
0,
1,
0,
0,
1,
1,
0,
1,
1,
1,
0,
0,
0,
0,
1,
2,
1,
0,
0,
0,
0,
0,
0,
0,
1,
0,
0,
0,
0,
0,
0,
0,
0,
0,
1,
0,
0,
0,
0,
0,
0,
0,
0,
0,
0,
0,
0,
0,
0,
0,
0,
0,
0,
0,
0,
0,
0,
0,
0,
0,
0,
0,
0,
0,
0,
0,
0,
0,
0,
0,
0,
0,
0,
0,
0,
0,
0,
0,
0,
0,
0,
0,
0,
0,
0,
0,
0,
0,
0,
0,
0,
0,
0,
0,
0,
0,
0,
0,
0,
0,
0,
0,
0,
0,
0,
0,
0,
0,
0,
0,
0,
0,
0,
0,
0,
0,
0,
0,
0,
0,
0,
0,
0,
0,
0,
0,
0,
0,
0,
0,
0,
0,
0,
0,
0,
0,
0,
0,
0,
0,
0,
0,
0,
0,
0,
0,
0,
0,
0,
0,
0,
0,
0,
0,
#ENDOFDATA   :