File: N132962/Quantification/15 keV/GMIIIA/GMIIIA K249[3][4].msa
#FORMAT      : EMSA/MAS Spectral Data File
#VERSION     : 1.0
#TITLE       : GMIIIA K249[3][all]
#DATE        : 22-SEP-2025
#TIME        : 15:07
#OWNER       : Unknown
#NPOINTS     : 4096
#NCOLUMNS    : 1
#XUNITS      : eV
#YUNITS      : counts
#DATATYPE    : Y
#XPERCHAN    : 9.99778
#OFFSET      : 1.69135
#BEAMKV      : 15
#SIGNALTYPE  : EDS
#ELEVANGLE   : 35
#AZIMANGLE   : 0
#LIVETIME    : 239.968
#REALTIME    : 258.854
#PROBECUR    : 1.21732
#TAUWIND     : 0
#TDEADLYR    : 0
#TACTLYR     : 0.045
#TALWIND     : 0.025
#CHOFFSET    : 0.0
#XLABEL      : Energy (eV)
#YLABEL      : Counts
#XPOSITION   : 9.16395
#YPOSITION   : 2.29314
#ZPOSITION   : 37.36299
#EDSDET      : SD
##SPECIMEN   : GMIIIA K249[3][all]
##D2STDCMP   : K249,(O:24.49),(Al:2.65),(Si:14.02),(Ba:8.96),(Ta:8.19),(Pb:39.45),(Bi:2.24)
##DET_HASH   : 12273538-fd48-a23f-0a19-f1e6fa85caef
##CALIB_HASH : 6abaa72c-aa41-8738-0be9-f592914732f3
##WORKING    : 15.0 mm
##DET_NAME   : EDAX All
##DET_MODE   : MediumLE
#SPECTRUM    :
37,
560,
12168,
9268,
41685,
7250,
7067,
7783,
7866,
8529,
10312,
16228,
57092,
30035,
7055,
6494,
11163,
66741,
15074,
8571,
4813,
5801,
5752,
4752,
4296,
4216,
4052,
3905,
4068,
3785,
3746,
4003,
11268,
3506,
4690,
5125,
3268,
4246,
2835,
2937,
2997,
2941,
2626,
2424,
2323,
2468,
2399,
2209,
2242,
2053,
1952,
1968,
1895,
1844,
1778,
1705,
1664,
1685,
2942,
1831,
1390,
1376,
1289,
1308,
1253,
1310,
1386,
1416,
1162,
1356,
1105,
876,
894,
888,
895,
1471,
1074,
764,
780,
660,
664,
643,
577,
569,
512,
506,
441,
446,
385,
402,
483,
318,
295,
279,
247,
232,
207,
179,
175,
118,
138,
102,
101,
60,
59,
36,
22,
6,
5,
3,
4,
3,
2,
2,
2,
2,
0,
0,
0,
1,
1,
2,
0,
1,
0,
0,
1,
1,
0,
1,
1,
1,
1,
0,
0,
2,
1,
0,
0,
0,
0,
0,
1,
0,
0,
0,
0,
0,
0,
1,
0,
0,
0,
0,
0,
0,
0,
0,
0,
1,
0,
0,
0,
0,
0,
1,
0,
0,
1,
0,
0,
0,
0,
0,
0,
0,
0,
0,
1,
0,
0,
0,
0,
0,
0,
0,
1,
0,
0,
0,
0,
0,
0,
0,
0,
0,
0,
0,
0,
0,
0,
0,
0,
0,
0,
0,
0,
0,
0,
0,
0,
0,
0,
0,
0,
0,
0,
0,
0,
0,
0,
0,
0,
0,
0,
0,
0,
0,
0,
0,
0,
0,
0,
0,
0,
0,
0,
0,
0,
0,
0,
0,
0,
0,
0,
0,
0,
0,
0,
0,
0,
0,
0,
0,
0,
0,
0,
0,
0,
0,
0,
0,
0,
0,
0,
0,
0,
0,
0,
0,
0,
0,
0,
0,
0,
0,
0,
0,
0,
0,
0,
0,
0,
0,
0,
0,
0,
0,
0,
0,
0,
0,
0,
0,
#ENDOFDATA   :