File: N132962/Quantification/15 keV/GMIIIA/GMIIIA K253[5][4].msa
#FORMAT      : EMSA/MAS Spectral Data File
#VERSION     : 1.0
#TITLE       : GMIIIA K253[5][all]
#DATE        : 22-SEP-2025
#TIME        : 14:45
#OWNER       : Unknown
#NPOINTS     : 4096
#NCOLUMNS    : 1
#XUNITS      : eV
#YUNITS      : counts
#DATATYPE    : Y
#XPERCHAN    : 9.99778
#OFFSET      : 1.69135
#BEAMKV      : 15
#SIGNALTYPE  : EDS
#ELEVANGLE   : 35
#AZIMANGLE   : 0
#LIVETIME    : 239.9137
#REALTIME    : 257.068
#PROBECUR    : 1.21732
#TAUWIND     : 0
#TDEADLYR    : 0
#TACTLYR     : 0.045
#TALWIND     : 0.025
#CHOFFSET    : 0.0
#XLABEL      : Energy (eV)
#YLABEL      : Counts
#XPOSITION   : 2.48203
#YPOSITION   : 2.27586
#ZPOSITION   : 37.36299
#EDSDET      : SD
##SPECIMEN   : GMIIIA K253[5][all]
##D2STDCMP   : K253,(O:31.64),(Si:18.7),(Mn:6.32),(Co:1.97),(Cu:2.0),(Zn:8.03),(Ba:31.35)
##DET_HASH   : 12273538-fd48-a23f-0a19-f1e6fa85caef
##CALIB_HASH : 6abaa72c-aa41-8738-0be9-f592914732f3
##WORKING    : 15.0 mm
##DET_NAME   : EDAX All
##DET_MODE   : MediumLE
#SPECTRUM    :
17,
366,
9344,
12475,
80758,
7674,
7805,
24577,
5569,
5109,
5500,
6241,
42796,
21928,
4386,
4306,
4656,
4381,
4270,
4151,
3995,
3755,
3816,
3604,
3575,
3448,
3220,
3066,
3801,
3110,
2821,
4659,
31725,
2902,
7825,
10055,
3143,
6555,
2071,
2686,
2773,
2480,
9681,
2285,
1559,
1523,
2206,
1735,
1415,
2204,
1942,
1226,
1177,
1206,
1203,
1129,
1004,
1660,
1382,
936,
870,
2077,
2731,
940,
853,
773,
726,
726,
953,
790,
601,
573,
548,
549,
480,
477,
473,
440,
380,
390,
395,
324,
334,
326,
314,
285,
244,
226,
227,
214,
177,
187,
164,
169,
129,
121,
97,
103,
100,
77,
72,
52,
50,
44,
24,
19,
9,
6,
2,
1,
1,
0,
1,
1,
2,
0,
1,
0,
1,
0,
2,
2,
1,
0,
0,
1,
1,
1,
1,
0,
0,
1,
1,
0,
1,
1,
0,
0,
0,
1,
0,
0,
0,
0,
0,
0,
0,
1,
0,
0,
0,
0,
0,
0,
0,
0,
0,
1,
0,
0,
0,
0,
0,
0,
0,
0,
0,
0,
0,
0,
0,
0,
0,
0,
0,
0,
0,
0,
0,
0,
0,
0,
0,
0,
0,
0,
0,
0,
0,
0,
0,
0,
0,
0,
0,
0,
0,
0,
0,
0,
0,
0,
0,
0,
0,
0,
0,
0,
0,
0,
0,
0,
0,
0,
0,
0,
0,
0,
0,
0,
0,
0,
0,
0,
0,
0,
0,
0,
0,
0,
0,
0,
0,
0,
0,
0,
0,
0,
0,
0,
0,
0,
0,
0,
0,
0,
0,
0,
0,
0,
0,
0,
0,
0,
0,
0,
0,
0,
0,
0,
0,
0,
0,
0,
0,
0,
0,
0,
0,
0,
0,
0,
0,
0,
0,
0,
0,
0,
0,
0,
0,
0,
0,
0,
0,
0,
0,
0,
0,
0,
0,
0,
0,
0,
#ENDOFDATA   :