File: N132962/Quantification/15 keV/GMIIIA/GMIIIA K249[4][4].msa
#FORMAT      : EMSA/MAS Spectral Data File
#VERSION     : 1.0
#TITLE       : GMIIIA K249[4][all]
#DATE        : 22-SEP-2025
#TIME        : 15:08
#OWNER       : Unknown
#NPOINTS     : 4096
#NCOLUMNS    : 1
#XUNITS      : eV
#YUNITS      : counts
#DATATYPE    : Y
#XPERCHAN    : 9.99778
#OFFSET      : 1.69135
#BEAMKV      : 15
#SIGNALTYPE  : EDS
#ELEVANGLE   : 35
#AZIMANGLE   : 0
#LIVETIME    : 240.064
#REALTIME    : 259.047
#PROBECUR    : 1.21732
#TAUWIND     : 0
#TDEADLYR    : 0
#TACTLYR     : 0.045
#TALWIND     : 0.025
#CHOFFSET    : 0.0
#XLABEL      : Energy (eV)
#YLABEL      : Counts
#XPOSITION   : 9.16812
#YPOSITION   : 2.31465
#ZPOSITION   : 37.36299
#EDSDET      : SD
##SPECIMEN   : GMIIIA K249[4][all]
##D2STDCMP   : K249,(O:24.49),(Al:2.65),(Si:14.02),(Ba:8.96),(Ta:8.19),(Pb:39.45),(Bi:2.24)
##DET_HASH   : 12273538-fd48-a23f-0a19-f1e6fa85caef
##CALIB_HASH : 6abaa72c-aa41-8738-0be9-f592914732f3
##WORKING    : 15.0 mm
##DET_NAME   : EDAX All
##DET_MODE   : MediumLE
#SPECTRUM    :
29,
563,
11946,
9176,
42518,
7548,
7223,
7991,
7894,
8496,
10367,
16196,
58627,
30421,
7206,
6442,
10960,
67742,
14871,
8069,
4500,
4848,
5379,
4520,
4211,
4187,
4088,
3940,
3988,
3874,
3678,
4017,
11423,
3466,
4777,
5554,
3369,
4243,
2866,
2984,
2956,
2799,
2653,
2506,
2458,
2311,
2365,
2225,
2113,
2097,
1993,
1936,
1925,
1879,
1707,
1733,
1704,
1650,
2846,
1703,
1462,
1470,
1359,
1294,
1293,
1228,
1409,
1536,
1166,
1328,
1073,
986,
929,
860,
926,
1389,
1057,
795,
765,
684,
671,
619,
581,
518,
518,
453,
431,
438,
441,
413,
473,
340,
310,
286,
278,
213,
217,
168,
162,
154,
129,
106,
92,
66,
50,
31,
16,
5,
2,
4,
3,
3,
1,
2,
0,
2,
1,
1,
1,
1,
0,
2,
3,
2,
0,
1,
2,
3,
3,
1,
0,
2,
1,
2,
0,
1,
0,
1,
0,
1,
0,
0,
0,
0,
0,
0,
0,
0,
0,
1,
0,
0,
0,
1,
0,
0,
0,
0,
0,
0,
0,
0,
0,
0,
0,
0,
0,
0,
0,
0,
0,
0,
0,
0,
0,
1,
1,
0,
0,
0,
0,
0,
0,
0,
0,
0,
0,
0,
0,
0,
0,
0,
0,
0,
0,
0,
0,
0,
0,
0,
0,
0,
0,
0,
0,
0,
0,
0,
0,
0,
0,
0,
0,
0,
0,
0,
0,
0,
0,
0,
0,
0,
0,
0,
0,
0,
0,
0,
0,
0,
0,
0,
0,
0,
0,
0,
0,
0,
0,
0,
0,
0,
0,
0,
0,
0,
0,
0,
0,
0,
0,
0,
0,
0,
0,
0,
0,
0,
0,
0,
0,
0,
0,
0,
0,
0,
0,
0,
0,
0,
0,
0,
0,
0,
0,
0,
0,
0,
0,
0,
0,
0,
0,
0,
0,
0,
0,
0,
0,
0,
0,
0,
0,
0,
#ENDOFDATA   :