File: N132962/Quantification/15 keV/GMIIIA/GMIIIA K249[0][4].msa
#FORMAT      : EMSA/MAS Spectral Data File
#VERSION     : 1.0
#TITLE       : GMIIIA K249[0][all]
#DATE        : 22-SEP-2025
#TIME        : 15:04
#OWNER       : Unknown
#NPOINTS     : 4096
#NCOLUMNS    : 1
#XUNITS      : eV
#YUNITS      : counts
#DATATYPE    : Y
#XPERCHAN    : 9.99778
#OFFSET      : 1.69135
#BEAMKV      : 15
#SIGNALTYPE  : EDS
#ELEVANGLE   : 35
#AZIMANGLE   : 0
#LIVETIME    : 239.943
#REALTIME    : 258.929
#PROBECUR    : 1.21732
#TAUWIND     : 0
#TDEADLYR    : 0
#TACTLYR     : 0.045
#TALWIND     : 0.025
#CHOFFSET    : 0.0
#XLABEL      : Energy (eV)
#YLABEL      : Counts
#XPOSITION   : 9.11798
#YPOSITION   : 2.24556
#ZPOSITION   : 37.36299
#EDSDET      : SD
##SPECIMEN   : GMIIIA K249[0][all]
##D2STDCMP   : K249,(O:24.49),(Al:2.65),(Si:14.02),(Ba:8.96),(Ta:8.19),(Pb:39.45),(Bi:2.24)
##DET_HASH   : 12273538-fd48-a23f-0a19-f1e6fa85caef
##CALIB_HASH : 6abaa72c-aa41-8738-0be9-f592914732f3
##WORKING    : 15.0 mm
##DET_NAME   : EDAX All
##DET_MODE   : MediumLE
#SPECTRUM    :
30,
519,
11694,
9349,
42748,
7456,
7291,
7906,
7967,
8725,
10397,
16208,
58121,
30737,
7202,
6402,
10984,
67233,
15019,
8173,
4540,
4728,
5418,
4568,
4148,
4164,
4006,
3928,
4012,
3843,
3749,
4118,
11397,
3422,
4855,
5357,
3351,
4271,
2954,
3012,
2989,
2836,
2639,
2418,
2350,
2263,
2356,
2146,
2128,
2012,
2034,
2030,
1894,
1826,
1778,
1737,
1649,
1643,
2975,
1830,
1492,
1409,
1374,
1230,
1287,
1293,
1369,
1530,
1196,
1279,
1068,
1024,
918,
878,
914,
1432,
1064,
769,
757,
656,
660,
606,
579,
526,
485,
476,
424,
438,
414,
391,
447,
338,
303,
268,
240,
197,
207,
165,
134,
137,
113,
100,
83,
70,
49,
29,
26,
8,
4,
5,
3,
3,
0,
6,
1,
1,
0,
0,
3,
1,
0,
2,
1,
2,
2,
2,
0,
0,
2,
0,
1,
1,
0,
1,
0,
0,
0,
1,
1,
0,
0,
0,
0,
1,
0,
0,
2,
0,
0,
0,
0,
1,
0,
0,
0,
0,
0,
0,
0,
0,
0,
0,
0,
0,
0,
0,
0,
0,
0,
0,
0,
0,
0,
0,
0,
0,
0,
0,
0,
0,
0,
0,
0,
0,
0,
0,
0,
0,
0,
0,
0,
0,
0,
0,
0,
0,
0,
0,
0,
0,
0,
0,
0,
0,
0,
0,
0,
0,
0,
0,
0,
0,
0,
0,
0,
0,
0,
0,
0,
0,
0,
0,
0,
0,
0,
0,
0,
0,
0,
0,
0,
0,
0,
0,
0,
0,
0,
0,
0,
0,
0,
0,
0,
0,
0,
0,
0,
0,
0,
0,
0,
0,
0,
0,
0,
0,
0,
0,
0,
0,
0,
0,
0,
0,
0,
0,
0,
0,
0,
0,
0,
0,
0,
0,
0,
0,
0,
0,
0,
0,
0,
0,
0,
0,
0,
0,
0,
0,
0,
0,
0,
0,
0,
0,
#ENDOFDATA   :