File: N132962/Quantification/15 keV/GMIIIA/GMIIIA K1236[0][4].msa
#FORMAT      : EMSA/MAS Spectral Data File
#VERSION     : 1.0
#TITLE       : GMIIIA K1236[0][all]
#DATE        : 22-SEP-2025
#TIME        : 23:04
#OWNER       : Unknown
#NPOINTS     : 4096
#NCOLUMNS    : 1
#XUNITS      : eV
#YUNITS      : counts
#DATATYPE    : Y
#XPERCHAN    : 9.99778
#OFFSET      : 1.69135
#BEAMKV      : 15
#SIGNALTYPE  : EDS
#ELEVANGLE   : 35
#AZIMANGLE   : 0
#LIVETIME    : 239.92
#REALTIME    : 258.861
#PROBECUR    : 1.21388
#TAUWIND     : 0
#TDEADLYR    : 0
#TACTLYR     : 0.045
#TALWIND     : 0.025
#CHOFFSET    : 0.0
#XLABEL      : Energy (eV)
#YLABEL      : Counts
#XPOSITION   : 7.20397
#YPOSITION   : 19.00859
#ZPOSITION   : 37.36299
#EDSDET      : SD
##SPECIMEN   : GMIIIA K1236[0][all]
##D2STDCMP   : K1236,(O:21.27),(Sc:0.65),(Ge:40.95),(Pb:37.13)
##DET_HASH   : 12273538-fd48-a23f-0a19-f1e6fa85caef
##CALIB_HASH : 6abaa72c-aa41-8738-0be9-f592914732f3
##WORKING    : 15.0 mm
##DET_NAME   : EDAX All
##DET_MODE   : MediumLE
#SPECTRUM    :
18,
489,
11202,
8754,
36311,
7550,
8409,
11541,
35734,
53852,
6391,
6485,
7100,
10959,
6431,
6485,
10638,
63351,
12599,
8258,
4709,
5041,
5475,
4626,
4341,
4320,
4032,
3981,
3988,
5197,
3858,
3716,
3852,
3476,
3396,
3347,
3095,
3072,
2925,
2788,
2726,
2678,
2618,
2551,
2467,
2409,
2378,
2212,
2104,
2003,
2044,
1937,
1865,
1892,
1814,
1707,
1659,
1560,
1569,
1491,
1444,
1448,
1289,
1320,
1323,
1246,
1174,
1146,
1152,
1150,
5222,
5284,
1077,
872,
944,
1486,
1114,
783,
1455,
1204,
608,
542,
563,
528,
520,
498,
435,
420,
411,
370,
440,
364,
279,
249,
229,
221,
187,
183,
169,
130,
120,
107,
94,
71,
60,
33,
16,
6,
7,
1,
3,
1,
3,
1,
2,
4,
2,
5,
3,
0,
1,
0,
2,
4,
2,
0,
0,
1,
0,
2,
0,
0,
0,
0,
1,
1,
1,
1,
0,
1,
2,
0,
0,
0,
0,
1,
0,
1,
1,
2,
0,
1,
0,
0,
0,
1,
1,
0,
0,
0,
0,
0,
0,
0,
0,
0,
0,
0,
0,
0,
0,
0,
0,
1,
0,
0,
0,
0,
0,
0,
0,
0,
0,
0,
0,
0,
0,
0,
0,
0,
0,
0,
0,
0,
0,
0,
0,
0,
0,
0,
0,
0,
0,
0,
0,
0,
0,
0,
0,
0,
0,
0,
0,
0,
0,
0,
0,
0,
0,
0,
0,
0,
0,
0,
0,
0,
0,
0,
0,
0,
0,
0,
0,
0,
0,
0,
0,
0,
0,
0,
0,
0,
0,
0,
0,
0,
0,
0,
0,
0,
0,
0,
0,
0,
0,
0,
0,
0,
0,
0,
0,
0,
0,
0,
0,
0,
0,
0,
0,
0,
0,
0,
0,
0,
0,
0,
0,
0,
0,
0,
0,
0,
0,
0,
0,
0,
0,
0,
0,
0,
0,
0,
0,
0,
#ENDOFDATA   :