File: N132962/Quantification/15 keV/GMIIIA/GMIIIA K230[6][4].msa
#FORMAT      : EMSA/MAS Spectral Data File
#VERSION     : 1.0
#TITLE       : GMIIIA K230[6][all]
#DATE        : 22-SEP-2025
#TIME        : 14:38
#OWNER       : Unknown
#NPOINTS     : 4096
#NCOLUMNS    : 1
#XUNITS      : eV
#YUNITS      : counts
#DATATYPE    : Y
#XPERCHAN    : 9.99778
#OFFSET      : 1.69135
#BEAMKV      : 15
#SIGNALTYPE  : EDS
#ELEVANGLE   : 35
#AZIMANGLE   : 0
#LIVETIME    : 239.9195
#REALTIME    : 258.728
#PROBECUR    : 1.21983
#TAUWIND     : 0
#TDEADLYR    : 0
#TACTLYR     : 0.045
#TALWIND     : 0.025
#CHOFFSET    : 0.0
#XLABEL      : Energy (eV)
#YLABEL      : Counts
#XPOSITION   : 3.79863
#YPOSITION   : 0.90378
#ZPOSITION   : 37.36299
#EDSDET      : SD
##SPECIMEN   : GMIIIA K230[6][all]
##D2STDCMP   : K230,(O:24.49),(Al:2.65),(Si:14.02),(Zn:4.02),(Ba:8.96),(Ta:4.09),(Pb:41.77)
##DET_HASH   : 12273538-fd48-a23f-0a19-f1e6fa85caef
##CALIB_HASH : 6abaa72c-aa41-8738-0be9-f592914732f3
##WORKING    : 15.0 mm
##DET_NAME   : EDAX All
##DET_MODE   : MediumLE
#SPECTRUM    :
35,
530,
13090,
9359,
43904,
7713,
7691,
17552,
7868,
8031,
9523,
15404,
47888,
28086,
7725,
6677,
11108,
69184,
13317,
8463,
4533,
4696,
5291,
4411,
4166,
4027,
3900,
3828,
3803,
3574,
3594,
3869,
10972,
3349,
4697,
5294,
3257,
4170,
2844,
3026,
2955,
2581,
2561,
2569,
2344,
2293,
2288,
2082,
1983,
2064,
1943,
1921,
1791,
1723,
1693,
1599,
1604,
1557,
2089,
1575,
1410,
1984,
2449,
1298,
1191,
1180,
1265,
1221,
1275,
1197,
945,
916,
817,
808,
860,
1435,
1007,
712,
673,
619,
614,
580,
544,
498,
477,
476,
428,
428,
339,
389,
494,
335,
277,
246,
222,
186,
177,
166,
144,
127,
94,
99,
79,
61,
48,
22,
17,
5,
2,
0,
1,
5,
1,
2,
0,
1,
3,
2,
0,
0,
2,
0,
0,
2,
0,
0,
3,
2,
0,
1,
1,
0,
0,
0,
1,
0,
1,
0,
0,
0,
0,
0,
0,
1,
0,
0,
0,
0,
0,
0,
2,
0,
0,
0,
0,
0,
0,
0,
0,
0,
0,
0,
0,
0,
0,
0,
0,
0,
0,
0,
0,
0,
0,
0,
0,
0,
0,
0,
0,
0,
0,
0,
0,
0,
0,
0,
0,
0,
0,
0,
0,
0,
0,
0,
0,
0,
0,
0,
0,
0,
0,
0,
0,
0,
0,
0,
0,
0,
0,
0,
0,
0,
0,
0,
0,
0,
0,
0,
0,
0,
0,
0,
0,
0,
0,
0,
0,
0,
0,
0,
0,
0,
0,
0,
0,
0,
0,
0,
0,
0,
0,
0,
0,
0,
0,
0,
0,
0,
0,
0,
0,
0,
0,
0,
0,
0,
0,
0,
0,
0,
0,
0,
0,
0,
0,
0,
0,
0,
0,
0,
0,
0,
0,
0,
0,
0,
0,
0,
0,
0,
0,
0,
0,
0,
0,
0,
0,
0,
0,
0,
0,
0,
0,
0,
#ENDOFDATA   :