File: N132962/Quantification/15 keV/GMIIIA/GMIIIA K229[2][4].msa
#FORMAT      : EMSA/MAS Spectral Data File
#VERSION     : 1.0
#TITLE       : GMIIIA K229[2][all]
#DATE        : 22-SEP-2025
#TIME        : 14:25
#OWNER       : Unknown
#NPOINTS     : 4096
#NCOLUMNS    : 1
#XUNITS      : eV
#YUNITS      : counts
#DATATYPE    : Y
#XPERCHAN    : 9.99778
#OFFSET      : 1.69135
#BEAMKV      : 15
#SIGNALTYPE  : EDS
#ELEVANGLE   : 35
#AZIMANGLE   : 0
#LIVETIME    : 239.983
#REALTIME    : 260.201
#PROBECUR    : 1.21983
#TAUWIND     : 0
#TDEADLYR    : 0
#TACTLYR     : 0.045
#TALWIND     : 0.025
#CHOFFSET    : 0.0
#XLABEL      : Energy (eV)
#YLABEL      : Counts
#XPOSITION   : 5.91759
#YPOSITION   : 0.78294
#ZPOSITION   : 37.36299
#EDSDET      : SD
##SPECIMEN   : GMIIIA K229[2][all]
##D2STDCMP   : K229,(O:20.99),(Si:14.02),(Pb:64.98)
##DET_HASH   : 12273538-fd48-a23f-0a19-f1e6fa85caef
##CALIB_HASH : 6abaa72c-aa41-8738-0be9-f592914732f3
##WORKING    : 15.0 mm
##DET_NAME   : EDAX All
##DET_MODE   : MediumLE
#SPECTRUM    :
25,
572,
13102,
8653,
33874,
8382,
7562,
8139,
8736,
9115,
9667,
10281,
44883,
33318,
7755,
7886,
15476,
115366,
19607,
10244,
4811,
5138,
6243,
4863,
4421,
4706,
4232,
4203,
4023,
4153,
3990,
3881,
3920,
3785,
3729,
3586,
3465,
3230,
3192,
3123,
3109,
2961,
2949,
2809,
2855,
2717,
2786,
2568,
2494,
2362,
2340,
2271,
2201,
2089,
2046,
1951,
1906,
1870,
1790,
1714,
1606,
1702,
1516,
1546,
1469,
1510,
1460,
1369,
1248,
1206,
1248,
1122,
1083,
1049,
1154,
2126,
1429,
837,
869,
787,
767,
675,
657,
655,
643,
544,
558,
529,
470,
441,
612,
465,
353,
340,
263,
259,
207,
217,
189,
172,
130,
113,
122,
88,
61,
40,
23,
5,
3,
1,
3,
4,
3,
2,
2,
3,
3,
2,
1,
1,
0,
0,
0,
3,
1,
1,
3,
0,
1,
0,
1,
2,
1,
4,
1,
2,
1,
0,
0,
0,
0,
0,
1,
2,
0,
0,
0,
0,
0,
0,
0,
0,
0,
1,
0,
0,
0,
0,
0,
1,
0,
0,
1,
0,
1,
1,
0,
1,
0,
1,
1,
0,
0,
0,
0,
0,
0,
0,
0,
0,
0,
0,
0,
0,
0,
0,
0,
0,
0,
0,
0,
0,
0,
0,
1,
0,
0,
0,
0,
0,
0,
0,
0,
0,
0,
0,
0,
0,
0,
0,
0,
0,
0,
0,
0,
0,
0,
0,
0,
0,
0,
0,
0,
0,
0,
0,
0,
0,
0,
0,
0,
0,
0,
0,
0,
0,
0,
0,
0,
0,
0,
0,
0,
0,
0,
0,
0,
0,
0,
0,
0,
0,
0,
0,
0,
0,
0,
0,
0,
0,
0,
0,
0,
0,
0,
0,
0,
0,
0,
0,
0,
0,
0,
0,
0,
0,
0,
0,
0,
0,
0,
0,
0,
0,
0,
0,
0,
0,
0,
0,
0,
0,
0,
0,
#ENDOFDATA   :