File: N132962/Quantification/15 keV/GMIIIA/GMIIIA K252[0][4].msa
#FORMAT      : EMSA/MAS Spectral Data File
#VERSION     : 1.0
#TITLE       : GMIIIA K252[0][all]
#DATE        : 22-SEP-2025
#TIME        : 14:48
#OWNER       : Unknown
#NPOINTS     : 4096
#NCOLUMNS    : 1
#XUNITS      : eV
#YUNITS      : counts
#DATATYPE    : Y
#XPERCHAN    : 9.99778
#OFFSET      : 1.69135
#BEAMKV      : 15
#SIGNALTYPE  : EDS
#ELEVANGLE   : 35
#AZIMANGLE   : 0
#LIVETIME    : 239.998
#REALTIME    : 257.128
#PROBECUR    : 1.21732
#TAUWIND     : 0
#TDEADLYR    : 0
#TACTLYR     : 0.045
#TALWIND     : 0.025
#CHOFFSET    : 0.0
#XLABEL      : Energy (eV)
#YLABEL      : Counts
#XPOSITION   : 4.67589
#YPOSITION   : 2.61197
#ZPOSITION   : 37.36299
#EDSDET      : SD
##SPECIMEN   : GMIIIA K252[0][all]
##D2STDCMP   : K252,(O:30.83),(Si:18.7),(Mn:3.16),(Co:3.93),(Cu:3.99),(Zn:8.03),(Ba:31.35)
##DET_HASH   : 12273538-fd48-a23f-0a19-f1e6fa85caef
##CALIB_HASH : 6abaa72c-aa41-8738-0be9-f592914732f3
##WORKING    : 15.0 mm
##DET_NAME   : EDAX All
##DET_MODE   : MediumLE
#SPECTRUM    :
33,
378,
9219,
12322,
79272,
8302,
8715,
26020,
5613,
4963,
5527,
6228,
42558,
21992,
4263,
4372,
4649,
4302,
4248,
4165,
4113,
3877,
3749,
3540,
3440,
3273,
3148,
3139,
3946,
3037,
2899,
4570,
31212,
3035,
7668,
10014,
3112,
6603,
2103,
2683,
2673,
2328,
6125,
2140,
1563,
1586,
1920,
1665,
1397,
2942,
2584,
1220,
1197,
1184,
1291,
1347,
1064,
2162,
1761,
926,
887,
1963,
2838,
955,
939,
766,
702,
723,
977,
805,
627,
597,
523,
549,
534,
480,
497,
405,
441,
386,
348,
359,
373,
330,
283,
274,
232,
230,
248,
203,
171,
173,
190,
176,
147,
129,
127,
109,
97,
86,
82,
56,
39,
31,
26,
18,
16,
4,
0,
3,
1,
0,
2,
3,
0,
0,
2,
0,
1,
1,
0,
1,
0,
0,
0,
0,
1,
1,
1,
0,
1,
0,
0,
1,
2,
0,
1,
0,
0,
0,
0,
0,
1,
0,
0,
0,
0,
0,
0,
0,
0,
0,
1,
0,
0,
0,
0,
0,
0,
0,
0,
0,
0,
0,
0,
0,
0,
0,
0,
0,
0,
0,
0,
0,
0,
0,
0,
0,
0,
0,
0,
0,
0,
0,
0,
0,
0,
0,
0,
0,
0,
0,
0,
0,
0,
0,
0,
0,
0,
0,
0,
0,
0,
0,
0,
0,
0,
0,
0,
0,
0,
0,
0,
0,
0,
0,
0,
0,
0,
0,
0,
0,
0,
0,
0,
0,
0,
0,
0,
0,
0,
0,
0,
0,
0,
0,
0,
0,
0,
0,
0,
0,
0,
0,
0,
0,
0,
0,
0,
0,
0,
0,
0,
0,
0,
0,
0,
0,
0,
0,
0,
0,
0,
0,
0,
0,
0,
0,
0,
0,
0,
0,
0,
0,
0,
0,
0,
0,
0,
0,
0,
0,
0,
0,
0,
0,
0,
0,
0,
0,
0,
0,
0,
0,
#ENDOFDATA   :