File: N132962/Quantification/15 keV/GMIIIA/GMIIIA K1012[6][4].msa
#FORMAT      : EMSA/MAS Spectral Data File
#VERSION     : 1.0
#TITLE       : GMIIIA K1012[6][all]
#DATE        : 22-SEP-2025
#TIME        : 21:27
#OWNER       : Unknown
#NPOINTS     : 4096
#NCOLUMNS    : 1
#XUNITS      : eV
#YUNITS      : counts
#DATATYPE    : Y
#XPERCHAN    : 9.99778
#OFFSET      : 1.69135
#BEAMKV      : 15
#SIGNALTYPE  : EDS
#ELEVANGLE   : 35
#AZIMANGLE   : 0
#LIVETIME    : 239.951
#REALTIME    : 256.611
#PROBECUR    : 1.21822
#TAUWIND     : 0
#TDEADLYR    : 0
#TACTLYR     : 0.045
#TALWIND     : 0.025
#CHOFFSET    : 0.0
#XLABEL      : Energy (eV)
#YLABEL      : Counts
#XPOSITION   : 6.91729
#YPOSITION   : 15.49306
#ZPOSITION   : 37.36299
#EDSDET      : SD
##SPECIMEN   : GMIIIA K1012[6][all]
##D2STDCMP   : K1012,(O:39.34),(Na:1.48),(Mg:9.05),(Al:7.94),(Si:18.7),(P:0.63),(K:1.66),(Ca:0.4),(Ga:1.49),(Se:0.71),(In:1.65),(Cs:1.89),(Ba:13.43),(Ce:1.63)
##DET_HASH   : 12273538-fd48-a23f-0a19-f1e6fa85caef
##CALIB_HASH : 6abaa72c-aa41-8738-0be9-f592914732f3
##WORKING    : 15.0 mm
##DET_NAME   : EDAX All
##DET_MODE   : MediumLE
#SPECTRUM    :
32,
290,
7438,
10972,
82530,
4708,
5005,
8262,
11686,
66481,
8243,
23094,
42729,
21635,
4669,
3503,
3625,
3162,
3010,
3049,
2926,
2842,
2705,
4167,
7166,
3624,
3588,
2623,
2465,
2117,
2336,
3590,
11601,
2657,
3953,
4986,
1938,
3006,
1850,
1576,
1774,
1370,
1284,
1174,
1074,
1111,
1022,
955,
877,
870,
869,
824,
832,
806,
747,
712,
727,
620,
627,
663,
627,
602,
561,
517,
456,
561,
847,
492,
439,
409,
391,
337,
373,
342,
345,
317,
286,
263,
261,
245,
213,
196,
210,
163,
167,
161,
148,
137,
116,
130,
119,
117,
104,
99,
56,
55,
68,
51,
43,
31,
40,
31,
33,
15,
17,
8,
8,
1,
1,
0,
1,
0,
3,
0,
0,
0,
0,
2,
0,
0,
0,
0,
0,
0,
0,
0,
0,
0,
0,
1,
0,
0,
0,
0,
0,
0,
0,
1,
0,
0,
0,
0,
0,
0,
0,
0,
0,
1,
0,
0,
0,
0,
0,
0,
0,
0,
0,
0,
0,
0,
0,
0,
0,
0,
0,
0,
0,
0,
0,
0,
0,
0,
0,
0,
0,
0,
0,
0,
0,
0,
0,
0,
0,
0,
0,
0,
0,
0,
0,
0,
0,
0,
0,
0,
0,
0,
0,
0,
0,
0,
0,
0,
0,
0,
0,
0,
0,
0,
0,
0,
0,
0,
0,
0,
0,
0,
0,
0,
0,
0,
0,
0,
0,
0,
0,
0,
0,
0,
0,
0,
0,
0,
0,
0,
0,
0,
0,
0,
0,
0,
0,
0,
0,
0,
0,
0,
0,
0,
0,
0,
0,
0,
0,
0,
0,
0,
0,
0,
0,
0,
0,
0,
0,
0,
0,
0,
0,
0,
0,
0,
0,
0,
0,
0,
0,
0,
0,
0,
0,
0,
0,
0,
0,
0,
0,
0,
0,
0,
0,
0,
0,
0,
0,
0,
#ENDOFDATA   :