File: N132962/Quantification/15 keV/GMIIIA/GMIIIA K227[3][4].msa
#FORMAT      : EMSA/MAS Spectral Data File
#VERSION     : 1.0
#TITLE       : GMIIIA K227[3][all]
#DATE        : 22-SEP-2025
#TIME        : 14:19
#OWNER       : Unknown
#NPOINTS     : 4096
#NCOLUMNS    : 1
#XUNITS      : eV
#YUNITS      : counts
#DATATYPE    : Y
#XPERCHAN    : 9.99778
#OFFSET      : 1.69135
#BEAMKV      : 15
#SIGNALTYPE  : EDS
#ELEVANGLE   : 35
#AZIMANGLE   : 0
#LIVETIME    : 240.476
#REALTIME    : 261.799
#PROBECUR    : 1.21983
#TAUWIND     : 0
#TDEADLYR    : 0
#TACTLYR     : 0.045
#TALWIND     : 0.025
#CHOFFSET    : 0.0
#XLABEL      : Energy (eV)
#YLABEL      : Counts
#XPOSITION   : 7.66607
#YPOSITION   : 0.40631
#ZPOSITION   : 37.36299
#EDSDET      : SD
##SPECIMEN   : GMIIIA K227[3][all]
##D2STDCMP   : K227,(O:16.39),(Si:9.35),(Pb:74.27)
##DET_HASH   : 12273538-fd48-a23f-0a19-f1e6fa85caef
##CALIB_HASH : 6abaa72c-aa41-8738-0be9-f592914732f3
##WORKING    : 15.0 mm
##DET_NAME   : EDAX All
##DET_MODE   : MediumLE
#SPECTRUM    :
38,
792,
14560,
8377,
29291,
10764,
8101,
8723,
9227,
9890,
10318,
10974,
35227,
31399,
8789,
8907,
17763,
137320,
22921,
11870,
5251,
5844,
6831,
5238,
4758,
4890,
4723,
4765,
4457,
4585,
4445,
4357,
4374,
4273,
4263,
4105,
3894,
3829,
3643,
3654,
3416,
3358,
3375,
3111,
3096,
3028,
3068,
2889,
2717,
2732,
2676,
2573,
2515,
2456,
2341,
2243,
2158,
2223,
2106,
2035,
1968,
1849,
1833,
1756,
1626,
1689,
1668,
1552,
1518,
1440,
1361,
1260,
1273,
1203,
1301,
2525,
1658,
1024,
945,
913,
881,
864,
778,
754,
714,
691,
642,
634,
588,
580,
707,
533,
425,
388,
321,
316,
298,
256,
239,
186,
190,
169,
141,
99,
94,
61,
30,
11,
3,
3,
3,
3,
1,
1,
6,
3,
1,
5,
4,
0,
1,
2,
3,
3,
2,
0,
0,
2,
4,
1,
1,
3,
1,
1,
2,
0,
0,
0,
2,
0,
1,
0,
0,
0,
0,
1,
0,
0,
0,
0,
2,
1,
0,
0,
0,
0,
0,
1,
0,
1,
0,
0,
0,
0,
1,
0,
0,
0,
0,
0,
0,
0,
0,
0,
0,
0,
0,
0,
0,
0,
0,
0,
0,
0,
0,
0,
0,
0,
0,
0,
0,
0,
0,
0,
0,
0,
0,
0,
0,
0,
0,
0,
0,
0,
0,
0,
0,
0,
0,
0,
0,
0,
0,
0,
0,
0,
0,
0,
0,
0,
0,
0,
0,
0,
0,
0,
0,
0,
0,
0,
0,
0,
0,
0,
0,
0,
0,
0,
0,
0,
0,
0,
0,
0,
0,
0,
0,
0,
0,
0,
0,
0,
0,
0,
0,
0,
0,
0,
0,
0,
0,
0,
0,
0,
0,
0,
0,
0,
0,
0,
0,
0,
0,
0,
0,
0,
0,
0,
0,
0,
0,
0,
0,
0,
0,
0,
0,
0,
0,
0,
0,
0,
0,
0,
#ENDOFDATA   :