File: N132962/Quantification/15 keV/GMIIIA/GMIIIA K229[3][4].msa
#FORMAT      : EMSA/MAS Spectral Data File
#VERSION     : 1.0
#TITLE       : GMIIIA K229[3][all]
#DATE        : 22-SEP-2025
#TIME        : 14:27
#OWNER       : Unknown
#NPOINTS     : 4096
#NCOLUMNS    : 1
#XUNITS      : eV
#YUNITS      : counts
#DATATYPE    : Y
#XPERCHAN    : 9.99778
#OFFSET      : 1.69135
#BEAMKV      : 15
#SIGNALTYPE  : EDS
#ELEVANGLE   : 35
#AZIMANGLE   : 0
#LIVETIME    : 239.796
#REALTIME    : 260.007
#PROBECUR    : 1.21983
#TAUWIND     : 0
#TDEADLYR    : 0
#TACTLYR     : 0.045
#TALWIND     : 0.025
#CHOFFSET    : 0.0
#XLABEL      : Energy (eV)
#YLABEL      : Counts
#XPOSITION   : 5.9593
#YPOSITION   : 0.64671
#ZPOSITION   : 37.36299
#EDSDET      : SD
##SPECIMEN   : GMIIIA K229[3][all]
##D2STDCMP   : K229,(O:20.99),(Si:14.02),(Pb:64.98)
##DET_HASH   : 12273538-fd48-a23f-0a19-f1e6fa85caef
##CALIB_HASH : 6abaa72c-aa41-8738-0be9-f592914732f3
##WORKING    : 15.0 mm
##DET_NAME   : EDAX All
##DET_MODE   : MediumLE
#SPECTRUM    :
34,
631,
13275,
8512,
33801,
8362,
7548,
8032,
8606,
9186,
9818,
10205,
45540,
33592,
7784,
7818,
15592,
114722,
19523,
10469,
4798,
5191,
6253,
4712,
4320,
4559,
4252,
4188,
3976,
4163,
4134,
3849,
3932,
3865,
3674,
3600,
3372,
3412,
3184,
3217,
3102,
3015,
2979,
2882,
2811,
2730,
2672,
2522,
2431,
2500,
2175,
2135,
2100,
2176,
2033,
1984,
1995,
1821,
1888,
1670,
1691,
1624,
1585,
1538,
1434,
1425,
1456,
1324,
1278,
1203,
1227,
1157,
1022,
1022,
1172,
2196,
1365,
919,
822,
743,
757,
717,
695,
672,
622,
579,
520,
513,
453,
489,
623,
434,
397,
363,
279,
267,
241,
220,
193,
193,
142,
113,
104,
98,
67,
49,
30,
11,
1,
1,
5,
3,
2,
2,
6,
2,
1,
1,
0,
2,
1,
1,
0,
4,
0,
1,
2,
0,
1,
0,
0,
1,
4,
1,
0,
0,
0,
0,
0,
1,
0,
0,
1,
0,
0,
0,
0,
0,
0,
0,
1,
0,
0,
0,
1,
0,
0,
0,
0,
0,
0,
0,
0,
0,
0,
0,
0,
0,
0,
0,
0,
0,
0,
0,
0,
0,
0,
0,
0,
0,
0,
0,
0,
0,
0,
0,
0,
0,
0,
0,
0,
0,
0,
0,
0,
0,
0,
0,
0,
0,
0,
0,
0,
0,
0,
0,
0,
0,
0,
0,
0,
0,
0,
0,
0,
0,
0,
0,
0,
0,
0,
0,
0,
0,
0,
0,
0,
0,
0,
0,
0,
0,
0,
0,
0,
0,
0,
0,
0,
0,
0,
0,
0,
0,
0,
0,
0,
0,
0,
0,
0,
0,
0,
0,
0,
0,
0,
0,
0,
0,
0,
0,
0,
0,
0,
0,
0,
0,
0,
0,
0,
0,
0,
0,
0,
0,
0,
0,
0,
0,
0,
0,
0,
0,
0,
0,
0,
0,
0,
0,
0,
0,
0,
0,
#ENDOFDATA   :