File: N132962/Quantification/15 keV/GMIIIA/GMIIIA K251[4][4].msa
#FORMAT      : EMSA/MAS Spectral Data File
#VERSION     : 1.0
#TITLE       : GMIIIA K251[4][all]
#DATE        : 22-SEP-2025
#TIME        : 15:00
#OWNER       : Unknown
#NPOINTS     : 4096
#NCOLUMNS    : 1
#XUNITS      : eV
#YUNITS      : counts
#DATATYPE    : Y
#XPERCHAN    : 9.99778
#OFFSET      : 1.69135
#BEAMKV      : 15
#SIGNALTYPE  : EDS
#ELEVANGLE   : 35
#AZIMANGLE   : 0
#LIVETIME    : 239.993
#REALTIME    : 259.181
#PROBECUR    : 1.21732
#TAUWIND     : 0
#TDEADLYR    : 0
#TACTLYR     : 0.045
#TALWIND     : 0.025
#CHOFFSET    : 0.0
#XLABEL      : Energy (eV)
#YLABEL      : Counts
#XPOSITION   : 7.09377
#YPOSITION   : 2.51252
#ZPOSITION   : 37.36299
#EDSDET      : SD
##SPECIMEN   : GMIIIA K251[4][all]
##D2STDCMP   : K251,(O:23.02),(Al:1.32),(Si:14.02),(Ba:8.96),(Ta:4.09),(Pb:44.1),(Bi:4.48)
##DET_HASH   : 12273538-fd48-a23f-0a19-f1e6fa85caef
##CALIB_HASH : 6abaa72c-aa41-8738-0be9-f592914732f3
##WORKING    : 15.0 mm
##DET_NAME   : EDAX All
##DET_MODE   : MediumLE
#SPECTRUM    :
31,
535,
12416,
9159,
40153,
7810,
7424,
8021,
7913,
8567,
9729,
12831,
50471,
29913,
7306,
6982,
12039,
79498,
18664,
8865,
4936,
5026,
5666,
4724,
4247,
4312,
4178,
4080,
4032,
3940,
3789,
4202,
11647,
3555,
4927,
5575,
3486,
4251,
3140,
3141,
3142,
2895,
2701,
2638,
2625,
2446,
2447,
2365,
2267,
2204,
2048,
2037,
1999,
1922,
1900,
1757,
1716,
1726,
2347,
1670,
1533,
1494,
1466,
1402,
1348,
1310,
1309,
1382,
1200,
1217,
1113,
1017,
994,
884,
941,
1612,
1149,
856,
804,
693,
711,
628,
619,
595,
540,
538,
493,
487,
429,
452,
483,
339,
335,
339,
256,
226,
203,
184,
168,
163,
110,
109,
82,
83,
65,
25,
20,
5,
1,
2,
2,
6,
3,
0,
2,
4,
4,
2,
3,
0,
3,
0,
1,
1,
1,
1,
1,
2,
1,
1,
0,
0,
1,
0,
1,
1,
2,
0,
0,
0,
0,
1,
0,
0,
0,
0,
0,
0,
0,
0,
0,
0,
0,
1,
0,
0,
0,
0,
1,
0,
0,
0,
0,
0,
0,
0,
0,
0,
0,
0,
0,
0,
0,
0,
0,
0,
0,
0,
0,
0,
0,
0,
0,
0,
0,
0,
0,
0,
0,
0,
0,
0,
0,
0,
0,
0,
0,
0,
0,
0,
0,
0,
0,
0,
0,
0,
0,
0,
0,
0,
0,
0,
0,
0,
0,
0,
0,
0,
0,
0,
0,
0,
0,
0,
0,
0,
0,
0,
0,
0,
0,
0,
0,
0,
0,
0,
0,
0,
0,
0,
0,
0,
0,
0,
0,
0,
0,
0,
0,
0,
0,
0,
0,
0,
0,
0,
0,
0,
0,
0,
0,
0,
0,
0,
0,
0,
0,
0,
0,
0,
0,
0,
0,
0,
0,
0,
0,
0,
0,
0,
0,
0,
0,
0,
0,
0,
0,
0,
0,
0,
0,
0,
0,
0,
#ENDOFDATA   :