File: N132962/Quantification/15 keV/GMIIIA/GMIIIA K249[5][4].msa
#FORMAT      : EMSA/MAS Spectral Data File
#VERSION     : 1.0
#TITLE       : GMIIIA K249[5][all]
#DATE        : 22-SEP-2025
#TIME        : 15:09
#OWNER       : Unknown
#NPOINTS     : 4096
#NCOLUMNS    : 1
#XUNITS      : eV
#YUNITS      : counts
#DATATYPE    : Y
#XPERCHAN    : 9.99778
#OFFSET      : 1.69135
#BEAMKV      : 15
#SIGNALTYPE  : EDS
#ELEVANGLE   : 35
#AZIMANGLE   : 0
#LIVETIME    : 240.045
#REALTIME    : 259.044
#PROBECUR    : 1.21732
#TAUWIND     : 0
#TDEADLYR    : 0
#TACTLYR     : 0.045
#TALWIND     : 0.025
#CHOFFSET    : 0.0
#XLABEL      : Energy (eV)
#YLABEL      : Counts
#XPOSITION   : 9.11763
#YPOSITION   : 2.30568
#ZPOSITION   : 37.36299
#EDSDET      : SD
##SPECIMEN   : GMIIIA K249[5][all]
##D2STDCMP   : K249,(O:24.49),(Al:2.65),(Si:14.02),(Ba:8.96),(Ta:8.19),(Pb:39.45),(Bi:2.24)
##DET_HASH   : 12273538-fd48-a23f-0a19-f1e6fa85caef
##CALIB_HASH : 6abaa72c-aa41-8738-0be9-f592914732f3
##WORKING    : 15.0 mm
##DET_NAME   : EDAX All
##DET_MODE   : MediumLE
#SPECTRUM    :
21,
475,
11563,
9116,
42703,
7302,
7227,
7963,
7825,
8455,
10308,
16173,
58079,
30325,
7288,
6510,
11060,
67842,
14826,
8120,
4618,
4801,
5432,
4540,
4108,
4257,
3981,
3924,
4103,
3833,
3711,
3940,
11507,
3495,
4803,
5361,
3324,
4265,
2941,
3035,
2936,
2733,
2620,
2462,
2494,
2417,
2432,
2184,
2157,
1937,
2074,
2027,
1894,
1849,
1668,
1667,
1719,
1670,
2986,
1754,
1485,
1361,
1343,
1282,
1286,
1245,
1464,
1420,
1196,
1304,
1006,
939,
850,
925,
907,
1433,
1037,
823,
800,
648,
633,
610,
573,
564,
527,
470,
435,
434,
376,
361,
463,
306,
302,
284,
246,
250,
203,
152,
129,
157,
133,
94,
86,
58,
49,
34,
18,
4,
4,
5,
4,
2,
1,
2,
1,
1,
2,
2,
1,
2,
1,
2,
1,
3,
1,
2,
1,
1,
2,
2,
1,
1,
0,
1,
0,
0,
0,
0,
1,
0,
1,
0,
2,
1,
0,
0,
0,
0,
0,
1,
1,
1,
0,
0,
0,
0,
0,
0,
0,
0,
0,
0,
0,
0,
0,
0,
0,
0,
0,
1,
0,
0,
0,
0,
0,
0,
0,
0,
0,
0,
0,
0,
0,
0,
0,
0,
0,
0,
0,
0,
0,
0,
0,
0,
0,
0,
0,
0,
0,
0,
0,
0,
0,
0,
0,
0,
0,
0,
0,
0,
0,
0,
0,
0,
0,
0,
0,
0,
0,
0,
0,
0,
0,
0,
0,
0,
0,
0,
0,
0,
0,
0,
0,
0,
0,
0,
0,
0,
0,
0,
0,
0,
0,
0,
0,
0,
0,
0,
0,
0,
0,
0,
0,
0,
0,
0,
0,
0,
0,
0,
0,
0,
0,
0,
0,
0,
0,
0,
0,
0,
0,
0,
0,
0,
0,
0,
0,
0,
0,
0,
0,
0,
0,
0,
0,
0,
0,
0,
0,
0,
0,
0,
0,
0,
#ENDOFDATA   :