File: N132962/Quantification/15 keV/GMIIIA/GMIIIA K1236[6][4].msa
#FORMAT      : EMSA/MAS Spectral Data File
#VERSION     : 1.0
#TITLE       : GMIIIA K1236[6][all]
#DATE        : 22-SEP-2025
#TIME        : 23:11
#OWNER       : Unknown
#NPOINTS     : 4096
#NCOLUMNS    : 1
#XUNITS      : eV
#YUNITS      : counts
#DATATYPE    : Y
#XPERCHAN    : 9.99778
#OFFSET      : 1.69135
#BEAMKV      : 15
#SIGNALTYPE  : EDS
#ELEVANGLE   : 35
#AZIMANGLE   : 0
#LIVETIME    : 239.962
#REALTIME    : 258.915
#PROBECUR    : 1.21388
#TAUWIND     : 0
#TDEADLYR    : 0
#TACTLYR     : 0.045
#TALWIND     : 0.025
#CHOFFSET    : 0.0
#XLABEL      : Energy (eV)
#YLABEL      : Counts
#XPOSITION   : 7.1724
#YPOSITION   : 18.99652
#ZPOSITION   : 37.36299
#EDSDET      : SD
##SPECIMEN   : GMIIIA K1236[6][all]
##D2STDCMP   : K1236,(O:21.27),(Sc:0.65),(Ge:40.95),(Pb:37.13)
##DET_HASH   : 12273538-fd48-a23f-0a19-f1e6fa85caef
##CALIB_HASH : 6abaa72c-aa41-8738-0be9-f592914732f3
##WORKING    : 15.0 mm
##DET_NAME   : EDAX All
##DET_MODE   : MediumLE
#SPECTRUM    :
19,
439,
11173,
8653,
36837,
7715,
8372,
11578,
35509,
53709,
6274,
6525,
6914,
11090,
6336,
6337,
10495,
63827,
12855,
8348,
4723,
5019,
5587,
4637,
4402,
4382,
4217,
4003,
3868,
5413,
3865,
3582,
3854,
3488,
3387,
3289,
3180,
3079,
2895,
2854,
2749,
2748,
2714,
2575,
2395,
2358,
2429,
2246,
2120,
2140,
2008,
1969,
1872,
1879,
1855,
1678,
1657,
1645,
1587,
1413,
1454,
1420,
1336,
1287,
1186,
1279,
1212,
1106,
1066,
1198,
5297,
5294,
1034,
935,
931,
1525,
1085,
775,
1422,
1149,
613,
611,
549,
552,
488,
465,
446,
423,
400,
383,
424,
367,
295,
263,
248,
220,
188,
190,
140,
164,
125,
77,
86,
75,
43,
41,
23,
6,
4,
3,
1,
6,
2,
1,
4,
0,
1,
1,
1,
0,
3,
1,
2,
1,
1,
0,
1,
2,
1,
1,
1,
0,
1,
1,
0,
1,
0,
0,
1,
0,
1,
2,
0,
1,
0,
0,
0,
0,
0,
0,
0,
0,
0,
0,
1,
0,
0,
0,
0,
0,
0,
0,
0,
0,
0,
0,
0,
0,
0,
0,
1,
0,
0,
0,
0,
0,
0,
0,
0,
0,
0,
0,
0,
0,
0,
0,
0,
0,
0,
0,
0,
0,
0,
0,
0,
0,
0,
0,
0,
0,
0,
0,
0,
0,
0,
0,
0,
0,
0,
0,
0,
0,
0,
0,
0,
0,
0,
0,
0,
0,
0,
0,
0,
0,
0,
0,
0,
0,
0,
0,
0,
0,
0,
0,
0,
0,
0,
0,
0,
0,
0,
0,
0,
0,
0,
0,
0,
0,
0,
0,
0,
0,
0,
0,
0,
0,
0,
0,
0,
0,
0,
0,
0,
0,
0,
0,
0,
0,
0,
0,
0,
0,
0,
0,
0,
0,
0,
0,
0,
0,
0,
0,
0,
0,
0,
0,
0,
0,
0,
0,
0,
0,
0,
0,
#ENDOFDATA   :