File: N132962/Quantification/15 keV/GMIIIA/GMIIIA K249[2][4].msa
#FORMAT      : EMSA/MAS Spectral Data File
#VERSION     : 1.0
#TITLE       : GMIIIA K249[2][all]
#DATE        : 22-SEP-2025
#TIME        : 15:06
#OWNER       : Unknown
#NPOINTS     : 4096
#NCOLUMNS    : 1
#XUNITS      : eV
#YUNITS      : counts
#DATATYPE    : Y
#XPERCHAN    : 9.99778
#OFFSET      : 1.69135
#BEAMKV      : 15
#SIGNALTYPE  : EDS
#ELEVANGLE   : 35
#AZIMANGLE   : 0
#LIVETIME    : 239.927
#REALTIME    : 258.919
#PROBECUR    : 1.21732
#TAUWIND     : 0
#TDEADLYR    : 0
#TACTLYR     : 0.045
#TALWIND     : 0.025
#CHOFFSET    : 0.0
#XLABEL      : Energy (eV)
#YLABEL      : Counts
#XPOSITION   : 9.12459
#YPOSITION   : 2.17197
#ZPOSITION   : 37.36299
#EDSDET      : SD
##SPECIMEN   : GMIIIA K249[2][all]
##D2STDCMP   : K249,(O:24.49),(Al:2.65),(Si:14.02),(Ba:8.96),(Ta:8.19),(Pb:39.45),(Bi:2.24)
##DET_HASH   : 12273538-fd48-a23f-0a19-f1e6fa85caef
##CALIB_HASH : 6abaa72c-aa41-8738-0be9-f592914732f3
##WORKING    : 15.0 mm
##DET_NAME   : EDAX All
##DET_MODE   : MediumLE
#SPECTRUM    :
23,
527,
11758,
9211,
42656,
7398,
7166,
8008,
7819,
8593,
10246,
16278,
58091,
30617,
7215,
6368,
10904,
67199,
15068,
8319,
4585,
4827,
5351,
4426,
4234,
4272,
4046,
3824,
4071,
3724,
3730,
4040,
11301,
3571,
4785,
5276,
3461,
4263,
2939,
3095,
3005,
2815,
2597,
2468,
2378,
2405,
2307,
2261,
2130,
2164,
1954,
2115,
1993,
1841,
1804,
1712,
1657,
1663,
2981,
1690,
1446,
1452,
1345,
1287,
1267,
1177,
1412,
1493,
1172,
1220,
1057,
987,
857,
925,
895,
1496,
1128,
789,
706,
627,
636,
593,
537,
547,
481,
471,
460,
435,
384,
393,
424,
331,
277,
281,
231,
210,
198,
194,
145,
113,
125,
109,
90,
74,
50,
36,
26,
7,
5,
5,
2,
4,
0,
4,
1,
1,
2,
1,
0,
0,
0,
2,
2,
0,
1,
3,
3,
1,
1,
0,
0,
0,
2,
1,
2,
0,
1,
0,
0,
0,
0,
0,
0,
1,
0,
0,
1,
1,
1,
0,
1,
0,
0,
0,
0,
1,
0,
0,
0,
1,
0,
0,
0,
0,
0,
0,
0,
0,
0,
0,
0,
0,
0,
0,
0,
0,
0,
0,
0,
0,
0,
0,
0,
0,
0,
0,
0,
0,
0,
0,
0,
0,
0,
0,
0,
0,
0,
0,
0,
0,
0,
0,
0,
0,
0,
0,
0,
0,
0,
0,
0,
0,
0,
0,
0,
0,
0,
0,
0,
0,
0,
0,
0,
0,
1,
0,
0,
0,
0,
0,
0,
0,
0,
0,
0,
0,
0,
0,
0,
0,
0,
0,
0,
0,
0,
0,
0,
0,
0,
0,
0,
0,
0,
0,
0,
0,
0,
0,
0,
0,
0,
0,
0,
0,
0,
0,
0,
0,
0,
0,
0,
0,
0,
0,
0,
0,
0,
0,
0,
0,
0,
0,
0,
0,
0,
0,
0,
0,
0,
0,
0,
0,
0,
0,
#ENDOFDATA   :