File: N132962/Quantification/15 keV/GMIIIA/GMIIIA K227[6][4].msa
#FORMAT      : EMSA/MAS Spectral Data File
#VERSION     : 1.0
#TITLE       : GMIIIA K227[6][all]
#DATE        : 22-SEP-2025
#TIME        : 14:22
#OWNER       : Unknown
#NPOINTS     : 4096
#NCOLUMNS    : 1
#XUNITS      : eV
#YUNITS      : counts
#DATATYPE    : Y
#XPERCHAN    : 9.99778
#OFFSET      : 1.69135
#BEAMKV      : 15
#SIGNALTYPE  : EDS
#ELEVANGLE   : 35
#AZIMANGLE   : 0
#LIVETIME    : 239.691
#REALTIME    : 260.908
#PROBECUR    : 1.21983
#TAUWIND     : 0
#TDEADLYR    : 0
#TACTLYR     : 0.045
#TALWIND     : 0.025
#CHOFFSET    : 0.0
#XLABEL      : Energy (eV)
#YLABEL      : Counts
#XPOSITION   : 7.71645
#YPOSITION   : 0.31984
#ZPOSITION   : 37.36299
#EDSDET      : SD
##SPECIMEN   : GMIIIA K227[6][all]
##D2STDCMP   : K227,(O:16.39),(Si:9.35),(Pb:74.27)
##DET_HASH   : 12273538-fd48-a23f-0a19-f1e6fa85caef
##CALIB_HASH : 6abaa72c-aa41-8738-0be9-f592914732f3
##WORKING    : 15.0 mm
##DET_NAME   : EDAX All
##DET_MODE   : MediumLE
#SPECTRUM    :
38,
748,
14760,
8542,
28610,
10452,
7849,
8642,
9352,
9870,
10483,
10687,
35304,
30520,
8626,
8722,
18085,
137185,
22819,
11618,
5085,
5754,
6912,
5234,
4931,
4882,
4609,
4760,
4399,
4513,
4397,
4390,
4490,
4099,
4201,
4082,
3873,
3877,
3671,
3581,
3455,
3446,
3254,
3188,
3173,
2975,
3064,
2833,
2758,
2696,
2652,
2539,
2492,
2480,
2339,
2236,
2244,
2091,
1978,
1983,
2003,
1861,
1798,
1763,
1678,
1716,
1646,
1491,
1429,
1408,
1330,
1326,
1201,
1187,
1323,
2437,
1706,
1028,
1001,
961,
914,
801,
780,
709,
754,
690,
640,
588,
548,
559,
734,
498,
404,
429,
324,
272,
285,
242,
210,
214,
180,
161,
125,
115,
99,
67,
27,
14,
3,
3,
4,
4,
5,
5,
3,
5,
3,
2,
4,
4,
0,
2,
2,
3,
1,
3,
0,
5,
1,
2,
0,
0,
1,
0,
1,
0,
0,
1,
1,
0,
0,
1,
0,
0,
1,
2,
0,
0,
1,
0,
0,
1,
0,
0,
0,
0,
0,
0,
0,
0,
0,
0,
1,
1,
0,
1,
0,
0,
0,
0,
0,
0,
0,
0,
0,
0,
0,
0,
0,
0,
0,
0,
0,
0,
0,
0,
0,
0,
0,
0,
0,
0,
0,
0,
0,
0,
0,
0,
0,
0,
0,
0,
0,
0,
0,
0,
0,
0,
0,
0,
0,
0,
0,
0,
0,
0,
0,
0,
0,
0,
0,
0,
0,
0,
0,
0,
0,
0,
0,
0,
0,
0,
0,
0,
0,
0,
0,
0,
0,
0,
0,
0,
0,
0,
0,
0,
0,
0,
0,
0,
0,
0,
0,
0,
0,
0,
0,
0,
0,
0,
0,
0,
0,
0,
0,
0,
0,
0,
0,
0,
0,
0,
0,
0,
0,
0,
0,
0,
0,
0,
0,
0,
0,
0,
0,
0,
0,
0,
0,
0,
0,
0,
0,
0,
#ENDOFDATA   :