File: N132962/Quantification/15 keV/GMIIIA/GMIIIA K229[1][4].msa
#FORMAT      : EMSA/MAS Spectral Data File
#VERSION     : 1.0
#TITLE       : GMIIIA K229[1][all]
#DATE        : 22-SEP-2025
#TIME        : 14:24
#OWNER       : Unknown
#NPOINTS     : 4096
#NCOLUMNS    : 1
#XUNITS      : eV
#YUNITS      : counts
#DATATYPE    : Y
#XPERCHAN    : 9.99778
#OFFSET      : 1.69135
#BEAMKV      : 15
#SIGNALTYPE  : EDS
#ELEVANGLE   : 35
#AZIMANGLE   : 0
#LIVETIME    : 239.942
#REALTIME    : 260.142
#PROBECUR    : 1.21983
#TAUWIND     : 0
#TDEADLYR    : 0
#TACTLYR     : 0.045
#TALWIND     : 0.025
#CHOFFSET    : 0.0
#XLABEL      : Energy (eV)
#YLABEL      : Counts
#XPOSITION   : 5.9622
#YPOSITION   : 0.74248
#ZPOSITION   : 37.36299
#EDSDET      : SD
##SPECIMEN   : GMIIIA K229[1][all]
##D2STDCMP   : K229,(O:20.99),(Si:14.02),(Pb:64.98)
##DET_HASH   : 12273538-fd48-a23f-0a19-f1e6fa85caef
##CALIB_HASH : 6abaa72c-aa41-8738-0be9-f592914732f3
##WORKING    : 15.0 mm
##DET_NAME   : EDAX All
##DET_MODE   : MediumLE
#SPECTRUM    :
21,
548,
12894,
8475,
33377,
8628,
7350,
8058,
8719,
9380,
9964,
10012,
45087,
33227,
7794,
7784,
15509,
115385,
19763,
10361,
4712,
5191,
6226,
4717,
4429,
4432,
4165,
4208,
4036,
4020,
3978,
3824,
3880,
3737,
3657,
3674,
3420,
3292,
3294,
3213,
3132,
3066,
2969,
2876,
2734,
2779,
2689,
2607,
2394,
2428,
2386,
2232,
2180,
2107,
2075,
1983,
1869,
1883,
1778,
1691,
1692,
1573,
1509,
1532,
1468,
1463,
1328,
1317,
1191,
1265,
1246,
1180,
1171,
1049,
1142,
1997,
1421,
886,
830,
793,
755,
750,
646,
662,
587,
548,
549,
511,
499,
487,
598,
414,
346,
346,
293,
276,
242,
203,
190,
147,
143,
152,
85,
96,
67,
44,
26,
8,
4,
5,
3,
0,
2,
3,
3,
3,
2,
1,
5,
2,
1,
2,
4,
1,
0,
1,
2,
1,
1,
1,
1,
0,
1,
0,
0,
0,
1,
1,
0,
0,
0,
2,
1,
1,
0,
0,
0,
0,
0,
1,
0,
0,
0,
1,
0,
0,
0,
0,
1,
0,
1,
0,
0,
0,
0,
0,
0,
0,
0,
0,
0,
0,
0,
0,
0,
0,
0,
0,
0,
0,
0,
0,
0,
0,
0,
0,
0,
0,
0,
0,
0,
0,
0,
0,
0,
0,
0,
0,
0,
0,
0,
0,
0,
0,
0,
0,
0,
0,
0,
0,
0,
0,
0,
0,
0,
0,
0,
0,
0,
0,
0,
0,
0,
0,
0,
0,
0,
0,
0,
0,
0,
0,
0,
0,
0,
0,
0,
0,
0,
0,
0,
0,
0,
0,
0,
0,
0,
0,
0,
0,
0,
0,
0,
0,
0,
0,
0,
0,
0,
0,
0,
0,
0,
0,
0,
0,
0,
0,
0,
0,
0,
0,
0,
0,
0,
0,
0,
0,
0,
0,
0,
0,
0,
0,
0,
0,
0,
0,
0,
0,
0,
0,
0,
0,
#ENDOFDATA   :