File: N132962/Quantification/15 keV/GMIIIA/GMIIIA K1070[6][4].msa
#FORMAT      : EMSA/MAS Spectral Data File
#VERSION     : 1.0
#TITLE       : GMIIIA K1070[6][all]
#DATE        : 22-SEP-2025
#TIME        : 21:07
#OWNER       : Unknown
#NPOINTS     : 4096
#NCOLUMNS    : 1
#XUNITS      : eV
#YUNITS      : counts
#DATATYPE    : Y
#XPERCHAN    : 9.99778
#OFFSET      : 1.69135
#BEAMKV      : 15
#SIGNALTYPE  : EDS
#ELEVANGLE   : 35
#AZIMANGLE   : 0
#LIVETIME    : 239.978
#REALTIME    : 256.165
#PROBECUR    : 1.21822
#TAUWIND     : 0
#TDEADLYR    : 0
#TACTLYR     : 0.045
#TALWIND     : 0.025
#CHOFFSET    : 0.0
#XLABEL      : Energy (eV)
#YLABEL      : Counts
#XPOSITION   : 2.35497
#YPOSITION   : 15.62999
#ZPOSITION   : 37.36299
#EDSDET      : SD
##SPECIMEN   : GMIIIA K1070[6][all]
##D2STDCMP   : K1070,(O:34.31),(Mg:7.54),(Si:18.7),(Ca:8.93),(Zn:10.04),(Ba:11.2),(Pb:9.28)
##DET_HASH   : 12273538-fd48-a23f-0a19-f1e6fa85caef
##CALIB_HASH : 6abaa72c-aa41-8738-0be9-f592914732f3
##WORKING    : 15.0 mm
##DET_NAME   : EDAX All
##DET_MODE   : MediumLE
#SPECTRUM    :
33,
321,
10463,
8840,
57810,
5152,
6565,
29531,
6616,
52550,
5321,
5784,
44248,
23424,
4395,
3926,
5216,
16548,
5220,
4430,
3454,
3369,
3297,
3063,
2923,
3038,
18300,
7672,
3396,
4831,
2328,
2780,
11559,
2197,
3747,
4339,
2147,
3228,
1720,
1904,
1860,
1671,
1545,
1415,
1351,
1322,
1364,
1251,
1175,
1108,
1084,
1052,
1017,
1034,
975,
909,
873,
819,
828,
801,
751,
2225,
3071,
665,
685,
632,
644,
610,
901,
721,
510,
512,
461,
420,
444,
510,
429,
378,
341,
344,
302,
289,
266,
239,
237,
242,
223,
203,
190,
179,
162,
147,
120,
141,
122,
95,
81,
72,
69,
58,
52,
47,
29,
33,
35,
20,
6,
1,
1,
1,
0,
0,
0,
0,
1,
0,
0,
0,
0,
3,
0,
1,
1,
2,
0,
1,
0,
0,
0,
0,
1,
0,
0,
0,
0,
0,
2,
1,
0,
0,
0,
0,
0,
1,
0,
0,
0,
0,
0,
1,
0,
0,
0,
0,
0,
0,
0,
0,
0,
0,
0,
0,
0,
0,
0,
0,
0,
0,
0,
0,
0,
0,
0,
0,
0,
0,
0,
0,
0,
0,
0,
0,
0,
0,
0,
0,
0,
0,
0,
0,
0,
0,
0,
0,
0,
0,
0,
0,
0,
0,
0,
0,
0,
0,
0,
0,
0,
0,
0,
0,
0,
0,
0,
0,
0,
0,
0,
0,
0,
0,
0,
0,
0,
0,
0,
0,
0,
0,
0,
0,
0,
0,
0,
0,
0,
0,
0,
0,
0,
0,
0,
0,
0,
0,
0,
0,
0,
0,
0,
0,
0,
0,
0,
0,
0,
0,
0,
0,
0,
0,
0,
0,
0,
0,
0,
0,
0,
0,
0,
0,
0,
0,
0,
0,
0,
0,
0,
0,
0,
0,
0,
0,
0,
0,
0,
0,
0,
0,
0,
0,
0,
0,
0,
0,
#ENDOFDATA   :