File: N132962/Quantification/15 keV/GMIIIA/GMIIIA K366[1][4].msa
#FORMAT      : EMSA/MAS Spectral Data File
#VERSION     : 1.0
#TITLE       : GMIIIA K366[1][all]
#DATE        : 22-SEP-2025
#TIME        : 15:37
#OWNER       : Unknown
#NPOINTS     : 4096
#NCOLUMNS    : 1
#XUNITS      : eV
#YUNITS      : counts
#DATATYPE    : Y
#XPERCHAN    : 9.99778
#OFFSET      : 1.69135
#BEAMKV      : 15
#SIGNALTYPE  : EDS
#ELEVANGLE   : 35
#AZIMANGLE   : 0
#LIVETIME    : 240.025
#REALTIME    : 260.388
#PROBECUR    : 1.21681
#TAUWIND     : 0
#TDEADLYR    : 0
#TACTLYR     : 0.045
#TALWIND     : 0.025
#CHOFFSET    : 0.0
#XLABEL      : Energy (eV)
#YLABEL      : Counts
#XPOSITION   : 8.38717
#YPOSITION   : 4.17241
#ZPOSITION   : 37.36299
#EDSDET      : SD
##SPECIMEN   : GMIIIA K366[1][all]
##D2STDCMP   : K366,(O:20.43),(Si:13.45),(Pb:66.12)
##DET_HASH   : 12273538-fd48-a23f-0a19-f1e6fa85caef
##CALIB_HASH : 6abaa72c-aa41-8738-0be9-f592914732f3
##WORKING    : 15.0 mm
##DET_NAME   : EDAX All
##DET_MODE   : MediumLE
#SPECTRUM    :
30,
619,
13003,
8421,
33155,
8351,
7550,
8264,
8767,
9492,
9757,
10151,
43513,
33118,
8034,
7883,
15895,
118654,
19885,
10519,
4887,
5213,
6241,
4818,
4509,
4612,
4257,
4338,
4052,
4189,
4223,
3723,
4059,
3798,
3845,
3636,
3398,
3501,
3404,
3206,
3118,
3077,
2944,
2921,
2863,
2812,
2835,
2501,
2456,
2504,
2404,
2302,
2203,
2265,
2147,
1963,
1932,
1876,
1830,
1859,
1733,
1610,
1582,
1582,
1509,
1441,
1471,
1363,
1352,
1189,
1180,
1198,
1079,
1071,
1131,
2164,
1426,
904,
879,
835,
795,
787,
679,
622,
630,
587,
554,
534,
468,
539,
704,
428,
377,
359,
333,
288,
264,
222,
185,
162,
150,
118,
91,
65,
78,
52,
30,
15,
1,
4,
3,
5,
1,
1,
6,
0,
0,
4,
1,
4,
3,
2,
1,
2,
0,
4,
0,
1,
2,
1,
0,
2,
1,
2,
0,
2,
0,
0,
0,
1,
1,
0,
1,
0,
0,
0,
1,
0,
0,
0,
0,
0,
0,
0,
0,
0,
1,
0,
0,
0,
0,
0,
0,
0,
0,
0,
0,
0,
0,
0,
0,
0,
0,
0,
0,
0,
1,
0,
0,
0,
0,
0,
0,
0,
0,
0,
0,
0,
0,
0,
0,
0,
0,
0,
0,
0,
0,
0,
0,
0,
0,
0,
0,
0,
0,
0,
0,
0,
0,
0,
0,
0,
0,
0,
0,
0,
0,
0,
0,
0,
0,
0,
0,
0,
0,
0,
0,
0,
0,
0,
0,
0,
0,
0,
0,
0,
0,
0,
0,
0,
0,
0,
0,
0,
0,
0,
0,
0,
0,
0,
0,
0,
0,
0,
0,
0,
0,
0,
0,
0,
0,
0,
0,
0,
0,
0,
0,
0,
0,
0,
0,
0,
0,
0,
0,
0,
0,
0,
0,
0,
0,
0,
0,
0,
0,
0,
0,
0,
0,
0,
0,
0,
0,
0,
#ENDOFDATA   :