File: N132962/Quantification/15 keV/GMIIIA/GMIIIA K230[4][4].msa
#FORMAT      : EMSA/MAS Spectral Data File
#VERSION     : 1.0
#TITLE       : GMIIIA K230[4][all]
#DATE        : 22-SEP-2025
#TIME        : 14:36
#OWNER       : Unknown
#NPOINTS     : 4096
#NCOLUMNS    : 1
#XUNITS      : eV
#YUNITS      : counts
#DATATYPE    : Y
#XPERCHAN    : 9.99778
#OFFSET      : 1.69135
#BEAMKV      : 15
#SIGNALTYPE  : EDS
#ELEVANGLE   : 35
#AZIMANGLE   : 0
#LIVETIME    : 239.836
#REALTIME    : 258.607
#PROBECUR    : 1.21983
#TAUWIND     : 0
#TDEADLYR    : 0
#TACTLYR     : 0.045
#TALWIND     : 0.025
#CHOFFSET    : 0.0
#XLABEL      : Energy (eV)
#YLABEL      : Counts
#XPOSITION   : 3.85293
#YPOSITION   : 0.87772
#ZPOSITION   : 37.36299
#EDSDET      : SD
##SPECIMEN   : GMIIIA K230[4][all]
##D2STDCMP   : K230,(O:24.49),(Al:2.65),(Si:14.02),(Zn:4.02),(Ba:8.96),(Ta:4.09),(Pb:41.77)
##DET_HASH   : 12273538-fd48-a23f-0a19-f1e6fa85caef
##CALIB_HASH : 6abaa72c-aa41-8738-0be9-f592914732f3
##WORKING    : 15.0 mm
##DET_NAME   : EDAX All
##DET_MODE   : MediumLE
#SPECTRUM    :
25,
488,
12908,
9334,
43791,
7856,
7538,
17372,
7790,
8021,
9491,
15094,
47808,
28559,
7483,
6463,
11016,
69211,
13249,
8292,
4461,
4717,
5411,
4330,
4091,
4164,
3996,
3918,
3914,
3788,
3678,
4034,
11094,
3358,
4590,
5264,
3248,
4166,
2892,
3009,
2900,
2740,
2561,
2475,
2348,
2289,
2231,
2199,
1931,
1960,
1866,
1936,
1852,
1834,
1755,
1659,
1544,
1616,
2153,
1519,
1466,
2029,
2407,
1269,
1227,
1139,
1228,
1297,
1234,
1227,
979,
937,
901,
810,
848,
1402,
1018,
776,
702,
650,
608,
535,
554,
526,
501,
475,
413,
411,
380,
357,
432,
314,
285,
234,
202,
232,
189,
165,
162,
112,
111,
97,
94,
56,
47,
32,
16,
9,
5,
3,
3,
5,
1,
2,
1,
3,
0,
1,
1,
4,
1,
3,
2,
1,
3,
1,
0,
0,
2,
0,
1,
0,
2,
1,
1,
0,
2,
0,
2,
0,
0,
0,
1,
1,
1,
0,
0,
0,
0,
0,
0,
0,
1,
0,
0,
0,
0,
1,
0,
0,
0,
0,
0,
0,
0,
0,
0,
0,
0,
0,
0,
0,
0,
0,
0,
0,
0,
0,
0,
0,
0,
0,
0,
0,
0,
0,
0,
0,
0,
0,
0,
0,
0,
0,
0,
0,
0,
0,
0,
0,
0,
0,
0,
0,
0,
0,
0,
0,
0,
0,
0,
0,
0,
0,
0,
0,
0,
0,
0,
0,
0,
0,
0,
0,
0,
0,
0,
0,
0,
0,
0,
0,
0,
0,
0,
0,
0,
0,
0,
0,
0,
0,
0,
0,
0,
0,
0,
0,
0,
0,
0,
0,
0,
0,
0,
0,
0,
0,
0,
0,
0,
0,
0,
0,
0,
0,
0,
0,
0,
0,
0,
0,
0,
0,
0,
0,
0,
0,
0,
0,
0,
0,
0,
0,
0,
0,
0,
0,
0,
0,
0,
0,
0,
0,
#ENDOFDATA   :