File: N132962/Quantification/15 keV/GMIIIA/GMIIIA K1236[2][4].msa
#FORMAT      : EMSA/MAS Spectral Data File
#VERSION     : 1.0
#TITLE       : GMIIIA K1236[2][all]
#DATE        : 22-SEP-2025
#TIME        : 23:06
#OWNER       : Unknown
#NPOINTS     : 4096
#NCOLUMNS    : 1
#XUNITS      : eV
#YUNITS      : counts
#DATATYPE    : Y
#XPERCHAN    : 9.99778
#OFFSET      : 1.69135
#BEAMKV      : 15
#SIGNALTYPE  : EDS
#ELEVANGLE   : 35
#AZIMANGLE   : 0
#LIVETIME    : 239.913
#REALTIME    : 258.861
#PROBECUR    : 1.21388
#TAUWIND     : 0
#TDEADLYR    : 0
#TACTLYR     : 0.045
#TALWIND     : 0.025
#CHOFFSET    : 0.0
#XLABEL      : Energy (eV)
#YLABEL      : Counts
#XPOSITION   : 7.20591
#YPOSITION   : 18.91664
#ZPOSITION   : 37.36299
#EDSDET      : SD
##SPECIMEN   : GMIIIA K1236[2][all]
##D2STDCMP   : K1236,(O:21.27),(Sc:0.65),(Ge:40.95),(Pb:37.13)
##DET_HASH   : 12273538-fd48-a23f-0a19-f1e6fa85caef
##CALIB_HASH : 6abaa72c-aa41-8738-0be9-f592914732f3
##WORKING    : 15.0 mm
##DET_NAME   : EDAX All
##DET_MODE   : MediumLE
#SPECTRUM    :
32,
487,
11649,
8783,
36489,
7692,
8251,
11632,
35901,
53279,
6493,
6415,
7121,
10965,
6366,
6478,
10406,
63581,
12379,
8329,
4781,
4967,
5678,
4602,
4269,
4336,
4175,
4084,
3816,
5330,
3808,
3630,
3864,
3406,
3413,
3268,
3181,
3079,
3034,
2873,
2770,
2777,
2537,
2534,
2440,
2388,
2425,
2207,
2190,
2011,
2113,
1995,
1834,
1845,
1734,
1776,
1787,
1590,
1579,
1465,
1395,
1385,
1320,
1280,
1266,
1246,
1205,
1059,
1056,
1130,
5329,
5404,
1016,
880,
917,
1441,
1049,
787,
1431,
1182,
646,
530,
555,
528,
479,
452,
421,
397,
420,
412,
449,
323,
271,
238,
216,
209,
198,
186,
143,
145,
135,
94,
78,
82,
61,
30,
34,
14,
2,
5,
5,
5,
3,
1,
0,
5,
3,
1,
1,
1,
0,
0,
0,
2,
2,
1,
0,
1,
1,
1,
0,
0,
1,
1,
1,
0,
0,
2,
1,
1,
1,
1,
1,
0,
1,
0,
0,
1,
0,
0,
1,
0,
0,
1,
0,
0,
1,
0,
0,
1,
1,
0,
0,
0,
0,
0,
0,
0,
0,
0,
0,
1,
1,
0,
0,
0,
0,
0,
0,
0,
0,
0,
0,
0,
1,
0,
0,
0,
0,
0,
0,
0,
0,
0,
0,
0,
0,
0,
0,
0,
0,
0,
0,
0,
0,
0,
0,
0,
0,
0,
0,
0,
0,
0,
0,
0,
0,
0,
0,
0,
0,
0,
0,
0,
0,
0,
0,
0,
0,
0,
0,
0,
0,
0,
0,
0,
0,
0,
0,
0,
0,
0,
0,
0,
0,
0,
0,
0,
0,
0,
0,
0,
0,
0,
0,
0,
0,
0,
0,
0,
0,
0,
0,
0,
0,
0,
0,
0,
0,
0,
0,
0,
0,
0,
0,
0,
0,
0,
0,
0,
0,
0,
0,
0,
0,
0,
0,
0,
0,
0,
0,
0,
0,
0,
#ENDOFDATA   :