File: N132962/Quantification/15 keV/GMIIIA/GMIIIA K1234[0][4].msa
#FORMAT      : EMSA/MAS Spectral Data File
#VERSION     : 1.0
#TITLE       : GMIIIA K1234[0][all]
#DATE        : 22-SEP-2025
#TIME        : 22:53
#OWNER       : Unknown
#NPOINTS     : 4096
#NCOLUMNS    : 1
#XUNITS      : eV
#YUNITS      : counts
#DATATYPE    : Y
#XPERCHAN    : 9.99778
#OFFSET      : 1.69135
#BEAMKV      : 15
#SIGNALTYPE  : EDS
#ELEVANGLE   : 35
#AZIMANGLE   : 0
#LIVETIME    : 239.934
#REALTIME    : 255.852
#PROBECUR    : 1.21591
#TAUWIND     : 0
#TDEADLYR    : 0
#TACTLYR     : 0.045
#TALWIND     : 0.025
#CHOFFSET    : 0.0
#XLABEL      : Energy (eV)
#YLABEL      : Counts
#XPOSITION   : 2.01214
#YPOSITION   : 17.87373
#ZPOSITION   : 37.36299
#EDSDET      : SD
##SPECIMEN   : GMIIIA K1234[0][all]
##D2STDCMP   : K1234,(O:39.85),(Al:9.15),(Si:21.56),(Ca:12.36),(Ba:15.49),(W:1.59)
##DET_HASH   : 12273538-fd48-a23f-0a19-f1e6fa85caef
##CALIB_HASH : 6abaa72c-aa41-8738-0be9-f592914732f3
##WORKING    : 15.0 mm
##DET_NAME   : EDAX All
##DET_MODE   : MediumLE
#SPECTRUM    :
27,
287,
10749,
8629,
63385,
4230,
4661,
5710,
5090,
5430,
10197,
28506,
49412,
27816,
4024,
3475,
3821,
3230,
3233,
3128,
2965,
2891,
2856,
2830,
2598,
2812,
24068,
9366,
3452,
5244,
1976,
2669,
14346,
1969,
4048,
4976,
2003,
3454,
1480,
1788,
1650,
1517,
1345,
1163,
1130,
1125,
1052,
970,
990,
888,
856,
872,
832,
808,
763,
766,
719,
660,
619,
669,
851,
628,
597,
577,
550,
503,
512,
422,
486,
478,
453,
410,
344,
362,
343,
336,
316,
291,
273,
252,
213,
229,
219,
184,
213,
215,
134,
154,
133,
140,
133,
96,
115,
100,
71,
84,
81,
60,
58,
46,
51,
32,
32,
23,
12,
8,
11,
4,
1,
0,
1,
0,
0,
1,
0,
0,
2,
1,
0,
0,
0,
1,
0,
0,
0,
0,
1,
1,
0,
3,
0,
0,
0,
0,
0,
0,
0,
0,
0,
0,
0,
0,
1,
0,
0,
0,
0,
0,
0,
0,
0,
0,
0,
0,
0,
0,
0,
0,
0,
0,
0,
0,
0,
0,
0,
0,
0,
0,
0,
0,
0,
0,
0,
0,
0,
0,
0,
0,
0,
0,
0,
0,
0,
0,
0,
0,
0,
0,
0,
0,
0,
0,
0,
0,
0,
0,
0,
0,
0,
0,
0,
0,
0,
0,
0,
0,
0,
0,
0,
0,
0,
0,
0,
0,
0,
0,
0,
0,
0,
0,
0,
0,
0,
0,
0,
0,
0,
0,
0,
0,
0,
0,
0,
0,
0,
0,
0,
0,
0,
0,
0,
0,
0,
0,
0,
0,
0,
0,
0,
0,
0,
0,
0,
0,
0,
0,
0,
0,
0,
0,
0,
0,
0,
0,
0,
0,
0,
0,
0,
0,
0,
0,
0,
0,
0,
0,
0,
0,
0,
0,
0,
0,
0,
0,
0,
0,
0,
0,
0,
0,
0,
0,
0,
0,
#ENDOFDATA   :