File: N132962/Quantification/15 keV/GMIIIA/GMIIIA K1236[3][4].msa
#FORMAT      : EMSA/MAS Spectral Data File
#VERSION     : 1.0
#TITLE       : GMIIIA K1236[3][all]
#DATE        : 22-SEP-2025
#TIME        : 23:07
#OWNER       : Unknown
#NPOINTS     : 4096
#NCOLUMNS    : 1
#XUNITS      : eV
#YUNITS      : counts
#DATATYPE    : Y
#XPERCHAN    : 9.99778
#OFFSET      : 1.69135
#BEAMKV      : 15
#SIGNALTYPE  : EDS
#ELEVANGLE   : 35
#AZIMANGLE   : 0
#LIVETIME    : 239.912
#REALTIME    : 258.856
#PROBECUR    : 1.21388
#TAUWIND     : 0
#TDEADLYR    : 0
#TACTLYR     : 0.045
#TALWIND     : 0.025
#CHOFFSET    : 0.0
#XLABEL      : Energy (eV)
#YLABEL      : Counts
#XPOSITION   : 7.18739
#YPOSITION   : 19.00863
#ZPOSITION   : 37.36299
#EDSDET      : SD
##SPECIMEN   : GMIIIA K1236[3][all]
##D2STDCMP   : K1236,(O:21.27),(Sc:0.65),(Ge:40.95),(Pb:37.13)
##DET_HASH   : 12273538-fd48-a23f-0a19-f1e6fa85caef
##CALIB_HASH : 6abaa72c-aa41-8738-0be9-f592914732f3
##WORKING    : 15.0 mm
##DET_NAME   : EDAX All
##DET_MODE   : MediumLE
#SPECTRUM    :
23,
485,
11141,
8762,
36269,
7656,
8365,
11643,
35411,
53455,
6230,
6379,
7052,
10891,
6489,
6377,
10431,
63462,
12582,
8202,
4741,
4910,
5507,
4501,
4322,
4427,
4219,
4014,
3898,
5260,
3780,
3653,
3874,
3414,
3416,
3192,
3270,
3056,
2914,
2807,
2849,
2779,
2523,
2564,
2475,
2430,
2443,
2240,
2081,
2061,
2041,
1975,
1938,
1951,
1815,
1828,
1675,
1606,
1560,
1470,
1479,
1383,
1377,
1330,
1198,
1178,
1221,
1119,
1121,
1153,
5503,
5296,
1062,
922,
883,
1502,
1129,
763,
1435,
1166,
562,
565,
577,
481,
486,
486,
448,
405,
398,
404,
468,
324,
310,
302,
248,
217,
199,
197,
175,
134,
124,
107,
89,
74,
52,
34,
21,
4,
1,
3,
2,
3,
0,
0,
2,
1,
1,
2,
2,
3,
1,
1,
0,
0,
0,
0,
0,
2,
1,
0,
0,
0,
2,
0,
0,
1,
0,
1,
2,
2,
0,
1,
0,
0,
0,
0,
0,
0,
1,
0,
1,
0,
1,
0,
0,
0,
1,
0,
0,
0,
0,
0,
0,
1,
0,
0,
0,
0,
0,
0,
0,
0,
0,
0,
0,
0,
0,
0,
0,
0,
0,
0,
0,
0,
0,
0,
0,
0,
0,
0,
0,
0,
0,
0,
0,
0,
0,
0,
0,
0,
0,
0,
0,
0,
0,
0,
0,
0,
0,
0,
0,
0,
0,
0,
0,
0,
0,
0,
0,
0,
0,
0,
0,
0,
0,
0,
0,
0,
0,
0,
0,
0,
0,
0,
0,
0,
0,
0,
0,
0,
0,
0,
0,
0,
0,
0,
0,
0,
0,
0,
0,
0,
0,
0,
0,
0,
0,
0,
0,
0,
0,
0,
0,
0,
0,
0,
0,
0,
0,
0,
0,
0,
0,
0,
0,
0,
0,
0,
0,
0,
0,
0,
0,
0,
0,
0,
0,
0,
0,
0,
0,
0,
0,
0,
#ENDOFDATA   :