File: N132962/Quantification/15 keV/GMIIIA/GMIIIA K252[3][4].msa
#FORMAT      : EMSA/MAS Spectral Data File
#VERSION     : 1.0
#TITLE       : GMIIIA K252[3][all]
#DATE        : 22-SEP-2025
#TIME        : 14:51
#OWNER       : Unknown
#NPOINTS     : 4096
#NCOLUMNS    : 1
#XUNITS      : eV
#YUNITS      : counts
#DATATYPE    : Y
#XPERCHAN    : 9.99778
#OFFSET      : 1.69135
#BEAMKV      : 15
#SIGNALTYPE  : EDS
#ELEVANGLE   : 35
#AZIMANGLE   : 0
#LIVETIME    : 239.994
#REALTIME    : 257.131
#PROBECUR    : 1.21732
#TAUWIND     : 0
#TDEADLYR    : 0
#TACTLYR     : 0.045
#TALWIND     : 0.025
#CHOFFSET    : 0.0
#XLABEL      : Energy (eV)
#YLABEL      : Counts
#XPOSITION   : 4.70937
#YPOSITION   : 2.67439
#ZPOSITION   : 37.36299
#EDSDET      : SD
##SPECIMEN   : GMIIIA K252[3][all]
##D2STDCMP   : K252,(O:30.83),(Si:18.7),(Mn:3.16),(Co:3.93),(Cu:3.99),(Zn:8.03),(Ba:31.35)
##DET_HASH   : 12273538-fd48-a23f-0a19-f1e6fa85caef
##CALIB_HASH : 6abaa72c-aa41-8738-0be9-f592914732f3
##WORKING    : 15.0 mm
##DET_NAME   : EDAX All
##DET_MODE   : MediumLE
#SPECTRUM    :
22,
406,
9221,
12185,
78724,
8295,
8882,
25982,
5711,
5034,
5338,
6333,
43036,
21825,
4288,
4478,
4794,
4494,
4169,
4343,
3957,
3768,
3800,
3608,
3513,
3454,
3333,
3140,
3857,
3110,
2868,
4641,
30909,
2918,
7565,
10155,
3102,
6595,
2186,
2845,
2638,
2332,
5925,
2005,
1632,
1576,
1882,
1564,
1460,
3039,
2584,
1254,
1269,
1232,
1298,
1266,
1071,
2247,
1736,
962,
931,
2154,
2810,
941,
915,
790,
691,
672,
994,
834,
583,
618,
556,
529,
489,
472,
463,
468,
423,
407,
334,
393,
331,
316,
276,
281,
263,
234,
200,
239,
195,
181,
181,
150,
131,
120,
108,
101,
98,
78,
77,
57,
52,
42,
28,
30,
9,
6,
0,
1,
2,
1,
1,
2,
1,
1,
1,
0,
1,
2,
0,
1,
0,
0,
1,
0,
0,
0,
0,
0,
0,
0,
2,
1,
0,
0,
1,
0,
1,
0,
0,
0,
0,
0,
0,
1,
0,
0,
0,
0,
0,
0,
2,
0,
0,
0,
0,
0,
0,
0,
0,
0,
0,
0,
0,
0,
0,
0,
0,
1,
0,
0,
0,
0,
0,
0,
0,
0,
0,
0,
0,
0,
0,
0,
0,
0,
0,
0,
0,
0,
0,
0,
0,
0,
0,
0,
0,
0,
0,
0,
0,
0,
0,
0,
0,
0,
0,
0,
0,
0,
0,
0,
0,
0,
0,
0,
0,
0,
0,
0,
0,
0,
0,
0,
0,
0,
0,
0,
0,
0,
0,
0,
0,
0,
0,
0,
0,
0,
0,
0,
0,
0,
0,
0,
0,
0,
0,
0,
0,
0,
0,
0,
0,
0,
0,
0,
0,
0,
0,
0,
0,
0,
0,
0,
0,
0,
0,
0,
0,
0,
0,
0,
0,
0,
0,
0,
0,
0,
0,
0,
0,
0,
0,
0,
0,
0,
0,
0,
0,
0,
0,
0,
0,
0,
#ENDOFDATA   :