File: N132962/Quantification/15 keV/GMIIIA/GMIIIA K252[4][4].msa
#FORMAT      : EMSA/MAS Spectral Data File
#VERSION     : 1.0
#TITLE       : GMIIIA K252[4][all]
#DATE        : 22-SEP-2025
#TIME        : 14:52
#OWNER       : Unknown
#NPOINTS     : 4096
#NCOLUMNS    : 1
#XUNITS      : eV
#YUNITS      : counts
#DATATYPE    : Y
#XPERCHAN    : 9.99778
#OFFSET      : 1.69135
#BEAMKV      : 15
#SIGNALTYPE  : EDS
#ELEVANGLE   : 35
#AZIMANGLE   : 0
#LIVETIME    : 239.945
#REALTIME    : 257.0761
#PROBECUR    : 1.21732
#TAUWIND     : 0
#TDEADLYR    : 0
#TACTLYR     : 0.045
#TALWIND     : 0.025
#CHOFFSET    : 0.0
#XLABEL      : Energy (eV)
#YLABEL      : Counts
#XPOSITION   : 4.71999
#YPOSITION   : 2.58815
#ZPOSITION   : 37.36299
#EDSDET      : SD
##SPECIMEN   : GMIIIA K252[4][all]
##D2STDCMP   : K252,(O:30.83),(Si:18.7),(Mn:3.16),(Co:3.93),(Cu:3.99),(Zn:8.03),(Ba:31.35)
##DET_HASH   : 12273538-fd48-a23f-0a19-f1e6fa85caef
##CALIB_HASH : 6abaa72c-aa41-8738-0be9-f592914732f3
##WORKING    : 15.0 mm
##DET_NAME   : EDAX All
##DET_MODE   : MediumLE
#SPECTRUM    :
29,
380,
9176,
12443,
79100,
8389,
8770,
26082,
5585,
4950,
5483,
6270,
42562,
21756,
4325,
4330,
4737,
4310,
4324,
4225,
4129,
3814,
3873,
3542,
3537,
3352,
3236,
3074,
3764,
3102,
2818,
4754,
31035,
2930,
7614,
10043,
3192,
6633,
2043,
2803,
2733,
2289,
6031,
2102,
1606,
1548,
1908,
1607,
1415,
2957,
2451,
1242,
1267,
1212,
1360,
1303,
1073,
2189,
1721,
986,
912,
2018,
2785,
978,
941,
742,
754,
699,
988,
791,
633,
579,
566,
530,
490,
485,
493,
446,
425,
416,
373,
367,
327,
310,
285,
289,
276,
232,
248,
212,
203,
171,
174,
167,
148,
118,
109,
90,
82,
73,
68,
51,
47,
37,
23,
17,
6,
7,
3,
2,
0,
1,
2,
1,
0,
1,
3,
0,
0,
0,
1,
1,
0,
1,
0,
0,
0,
0,
1,
0,
0,
0,
0,
1,
0,
0,
0,
2,
0,
0,
1,
0,
0,
0,
0,
0,
0,
0,
0,
0,
0,
0,
0,
0,
0,
0,
0,
0,
0,
0,
0,
0,
0,
0,
0,
0,
0,
0,
0,
0,
0,
0,
0,
0,
0,
0,
0,
0,
0,
0,
0,
0,
0,
0,
1,
0,
0,
0,
0,
0,
0,
0,
0,
0,
0,
0,
0,
0,
0,
0,
0,
0,
0,
0,
0,
0,
0,
0,
0,
0,
0,
0,
0,
0,
0,
0,
0,
0,
0,
0,
0,
0,
0,
0,
0,
0,
0,
0,
0,
0,
0,
0,
0,
0,
0,
0,
0,
0,
0,
0,
0,
0,
0,
0,
0,
0,
0,
0,
0,
0,
0,
0,
0,
0,
0,
0,
0,
0,
0,
0,
0,
0,
0,
0,
0,
0,
0,
0,
0,
0,
0,
0,
0,
0,
0,
0,
0,
0,
0,
0,
0,
0,
0,
0,
0,
0,
0,
0,
0,
0,
0,
0,
0,
0,
#ENDOFDATA   :