File: N132962/Quantification/15 keV/GMIIIA/GMIIIA K366[2][4].msa
#FORMAT      : EMSA/MAS Spectral Data File
#VERSION     : 1.0
#TITLE       : GMIIIA K366[2][all]
#DATE        : 22-SEP-2025
#TIME        : 15:38
#OWNER       : Unknown
#NPOINTS     : 4096
#NCOLUMNS    : 1
#XUNITS      : eV
#YUNITS      : counts
#DATATYPE    : Y
#XPERCHAN    : 9.99778
#OFFSET      : 1.69135
#BEAMKV      : 15
#SIGNALTYPE  : EDS
#ELEVANGLE   : 35
#AZIMANGLE   : 0
#LIVETIME    : 240.017
#REALTIME    : 260.388
#PROBECUR    : 1.21681
#TAUWIND     : 0
#TDEADLYR    : 0
#TACTLYR     : 0.045
#TALWIND     : 0.025
#CHOFFSET    : 0.0
#XLABEL      : Energy (eV)
#YLABEL      : Counts
#XPOSITION   : 8.32833
#YPOSITION   : 4.16236
#ZPOSITION   : 37.36299
#EDSDET      : SD
##SPECIMEN   : GMIIIA K366[2][all]
##D2STDCMP   : K366,(O:20.43),(Si:13.45),(Pb:66.12)
##DET_HASH   : 12273538-fd48-a23f-0a19-f1e6fa85caef
##CALIB_HASH : 6abaa72c-aa41-8738-0be9-f592914732f3
##WORKING    : 15.0 mm
##DET_NAME   : EDAX All
##DET_MODE   : MediumLE
#SPECTRUM    :
34,
616,
12928,
8437,
33043,
8598,
7759,
8233,
8713,
9194,
9807,
10287,
43657,
33110,
7889,
7875,
15998,
118731,
19855,
10718,
4919,
5292,
6361,
4703,
4498,
4596,
4205,
4325,
4122,
4016,
4175,
4019,
4083,
3725,
3856,
3747,
3524,
3317,
3303,
3224,
3185,
3137,
2986,
2896,
2734,
2721,
2756,
2558,
2480,
2427,
2336,
2251,
2223,
2244,
2050,
2004,
1940,
1836,
1857,
1802,
1714,
1713,
1538,
1522,
1491,
1529,
1428,
1342,
1276,
1224,
1213,
1155,
1128,
1050,
1120,
2185,
1466,
935,
843,
839,
765,
745,
674,
645,
641,
614,
553,
575,
476,
500,
666,
444,
366,
334,
304,
260,
231,
246,
222,
168,
160,
119,
98,
90,
85,
35,
26,
14,
3,
3,
0,
5,
1,
4,
2,
2,
1,
0,
1,
3,
3,
3,
0,
4,
1,
2,
0,
1,
1,
0,
0,
0,
1,
0,
0,
1,
0,
2,
1,
2,
0,
2,
0,
1,
0,
0,
0,
0,
0,
0,
0,
1,
0,
2,
1,
0,
0,
0,
0,
0,
1,
0,
0,
0,
0,
0,
0,
0,
0,
0,
0,
0,
0,
0,
0,
0,
0,
1,
0,
0,
0,
0,
0,
0,
0,
0,
0,
0,
0,
0,
0,
0,
0,
0,
1,
0,
0,
0,
0,
0,
0,
0,
0,
0,
0,
0,
0,
0,
0,
0,
0,
0,
0,
0,
0,
0,
0,
0,
0,
0,
0,
0,
0,
0,
0,
0,
0,
0,
0,
0,
0,
0,
0,
0,
0,
0,
0,
0,
0,
0,
0,
0,
0,
0,
0,
0,
0,
0,
0,
0,
0,
0,
0,
0,
0,
0,
0,
0,
0,
0,
0,
0,
0,
0,
0,
0,
0,
0,
0,
0,
0,
0,
0,
0,
0,
0,
0,
0,
0,
0,
0,
0,
0,
0,
0,
0,
0,
0,
0,
0,
0,
0,
0,
0,
#ENDOFDATA   :