File: N132962/Quantification/15 keV/GMIIIA/GMIIIA K1053[7][4].msa
#FORMAT      : EMSA/MAS Spectral Data File
#VERSION     : 1.0
#TITLE       : GMIIIA K1053[7][all]
#DATE        : 22-SEP-2025
#TIME        : 21:18
#OWNER       : Unknown
#NPOINTS     : 4096
#NCOLUMNS    : 1
#XUNITS      : eV
#YUNITS      : counts
#DATATYPE    : Y
#XPERCHAN    : 9.99778
#OFFSET      : 1.69135
#BEAMKV      : 15
#SIGNALTYPE  : EDS
#ELEVANGLE   : 35
#AZIMANGLE   : 0
#LIVETIME    : 239.907
#REALTIME    : 261.033
#PROBECUR    : 1.21822
#TAUWIND     : 0
#TDEADLYR    : 0
#TACTLYR     : 0.045
#TALWIND     : 0.025
#CHOFFSET    : 0.0
#XLABEL      : Energy (eV)
#YLABEL      : Counts
#XPOSITION   : 4.56159
#YPOSITION   : 15.41048
#ZPOSITION   : 37.36299
#EDSDET      : SD
##SPECIMEN   : GMIIIA K1053[7][all]
##D2STDCMP   : K1053,(O:16.13),(F:0.39),(Si:9.35),(Cl:0.64),(Br:1.09),(I:1.37),(Pb:71.02)
##DET_HASH   : 12273538-fd48-a23f-0a19-f1e6fa85caef
##CALIB_HASH : 6abaa72c-aa41-8738-0be9-f592914732f3
##WORKING    : 15.0 mm
##DET_NAME   : EDAX All
##DET_MODE   : MediumLE
#SPECTRUM    :
18,
743,
14495,
8389,
28100,
10243,
8248,
8724,
9193,
9983,
10660,
13150,
34386,
30255,
8581,
8761,
17582,
132083,
22411,
13195,
5383,
5598,
7007,
5154,
4748,
4835,
4552,
4633,
5876,
4558,
5050,
4382,
4654,
4179,
4184,
4140,
3855,
3727,
3635,
3595,
3336,
3219,
3281,
3170,
3188,
2950,
3042,
2857,
2685,
2698,
2644,
2492,
2385,
2484,
2315,
2223,
2151,
2143,
1998,
1965,
1921,
1920,
1779,
1707,
1706,
1632,
1635,
1504,
1407,
1379,
1281,
1305,
1217,
1188,
1310,
2475,
1698,
1006,
974,
951,
848,
837,
806,
739,
676,
658,
646,
575,
511,
566,
702,
512,
425,
403,
351,
284,
311,
287,
231,
190,
193,
145,
111,
104,
75,
65,
24,
9,
5,
3,
6,
3,
3,
4,
2,
3,
3,
1,
4,
0,
0,
1,
2,
4,
2,
1,
3,
1,
4,
3,
0,
1,
1,
1,
0,
2,
0,
1,
2,
1,
1,
2,
1,
0,
0,
0,
0,
0,
0,
0,
1,
0,
0,
1,
0,
0,
0,
0,
0,
0,
1,
0,
0,
0,
0,
0,
0,
0,
0,
0,
0,
0,
1,
0,
0,
0,
0,
0,
0,
0,
0,
0,
0,
0,
0,
0,
0,
0,
0,
0,
0,
0,
0,
0,
0,
0,
0,
0,
0,
0,
0,
0,
0,
0,
0,
0,
0,
0,
0,
0,
0,
0,
0,
0,
0,
0,
0,
0,
0,
0,
0,
0,
0,
0,
0,
0,
0,
0,
0,
0,
0,
0,
0,
0,
0,
0,
0,
0,
0,
0,
0,
0,
0,
0,
0,
0,
0,
0,
0,
0,
0,
0,
0,
0,
0,
0,
0,
0,
0,
0,
0,
0,
0,
0,
0,
0,
0,
0,
0,
0,
0,
0,
0,
0,
0,
0,
0,
0,
0,
0,
0,
0,
0,
0,
0,
0,
0,
0,
0,
0,
0,
0,
0,
0,
#ENDOFDATA   :