File: N132962/Quantification/15 keV/GMIIIA/GMIIIA K229[4][4].msa
#FORMAT      : EMSA/MAS Spectral Data File
#VERSION     : 1.0
#TITLE       : GMIIIA K229[4][all]
#DATE        : 22-SEP-2025
#TIME        : 14:28
#OWNER       : Unknown
#NPOINTS     : 4096
#NCOLUMNS    : 1
#XUNITS      : eV
#YUNITS      : counts
#DATATYPE    : Y
#XPERCHAN    : 9.99778
#OFFSET      : 1.69135
#BEAMKV      : 15
#SIGNALTYPE  : EDS
#ELEVANGLE   : 35
#AZIMANGLE   : 0
#LIVETIME    : 239.905
#REALTIME    : 260.137
#PROBECUR    : 1.21983
#TAUWIND     : 0
#TDEADLYR    : 0
#TACTLYR     : 0.045
#TALWIND     : 0.025
#CHOFFSET    : 0.0
#XLABEL      : Energy (eV)
#YLABEL      : Counts
#XPOSITION   : 5.9628
#YPOSITION   : 0.70012
#ZPOSITION   : 37.36299
#EDSDET      : SD
##SPECIMEN   : GMIIIA K229[4][all]
##D2STDCMP   : K229,(O:20.99),(Si:14.02),(Pb:64.98)
##DET_HASH   : 12273538-fd48-a23f-0a19-f1e6fa85caef
##CALIB_HASH : 6abaa72c-aa41-8738-0be9-f592914732f3
##WORKING    : 15.0 mm
##DET_NAME   : EDAX All
##DET_MODE   : MediumLE
#SPECTRUM    :
35,
614,
13175,
8445,
33925,
8517,
7530,
8133,
8629,
9250,
9781,
10280,
44885,
33524,
7537,
8044,
15582,
115153,
19586,
10437,
4625,
5131,
6069,
4742,
4313,
4553,
4204,
4342,
4031,
4197,
3985,
3901,
4038,
3692,
3763,
3653,
3500,
3333,
3263,
3245,
3071,
3021,
2906,
2797,
2779,
2748,
2683,
2546,
2468,
2421,
2357,
2263,
2219,
2102,
2083,
2005,
1838,
1897,
1762,
1742,
1606,
1532,
1595,
1525,
1459,
1406,
1437,
1293,
1254,
1311,
1119,
1118,
1122,
1056,
1110,
2033,
1436,
862,
835,
747,
734,
682,
685,
640,
598,
568,
605,
519,
483,
491,
617,
429,
377,
373,
306,
275,
229,
232,
214,
178,
162,
99,
98,
93,
70,
44,
31,
12,
6,
4,
3,
2,
2,
3,
2,
0,
2,
0,
3,
0,
0,
2,
1,
1,
1,
1,
0,
0,
0,
0,
1,
2,
1,
0,
0,
0,
3,
1,
1,
1,
0,
1,
0,
0,
0,
0,
1,
0,
0,
0,
0,
0,
0,
0,
0,
0,
0,
0,
2,
0,
0,
1,
0,
0,
0,
1,
0,
0,
0,
0,
0,
0,
0,
0,
0,
0,
0,
0,
0,
0,
0,
0,
0,
0,
0,
0,
0,
0,
0,
0,
0,
0,
0,
0,
0,
0,
0,
0,
0,
0,
0,
0,
0,
0,
0,
0,
0,
0,
0,
0,
0,
0,
0,
0,
0,
0,
0,
0,
0,
0,
0,
0,
0,
0,
0,
0,
0,
0,
0,
0,
0,
0,
0,
0,
0,
0,
0,
0,
0,
0,
0,
0,
0,
0,
0,
0,
0,
0,
0,
0,
0,
0,
0,
0,
0,
0,
0,
0,
0,
0,
0,
0,
0,
0,
0,
0,
0,
0,
0,
0,
0,
0,
0,
0,
0,
0,
0,
0,
0,
0,
0,
0,
0,
0,
0,
0,
0,
0,
0,
0,
0,
0,
0,
0,
#ENDOFDATA   :