File: N132962/Quantification/15 keV/GMIIIA/GMIIIA K253[3][4].msa
#FORMAT      : EMSA/MAS Spectral Data File
#VERSION     : 1.0
#TITLE       : GMIIIA K253[3][all]
#DATE        : 22-SEP-2025
#TIME        : 14:43
#OWNER       : Unknown
#NPOINTS     : 4096
#NCOLUMNS    : 1
#XUNITS      : eV
#YUNITS      : counts
#DATATYPE    : Y
#XPERCHAN    : 9.99778
#OFFSET      : 1.69135
#BEAMKV      : 15
#SIGNALTYPE  : EDS
#ELEVANGLE   : 35
#AZIMANGLE   : 0
#LIVETIME    : 239.923
#REALTIME    : 257.064
#PROBECUR    : 1.21983
#TAUWIND     : 0
#TDEADLYR    : 0
#TACTLYR     : 0.045
#TALWIND     : 0.025
#CHOFFSET    : 0.0
#XLABEL      : Energy (eV)
#YLABEL      : Counts
#XPOSITION   : 2.58634
#YPOSITION   : 2.33133
#ZPOSITION   : 37.36299
#EDSDET      : SD
##SPECIMEN   : GMIIIA K253[3][all]
##D2STDCMP   : K253,(O:31.64),(Si:18.7),(Mn:6.32),(Co:1.97),(Cu:2.0),(Zn:8.03),(Ba:31.35)
##DET_HASH   : 12273538-fd48-a23f-0a19-f1e6fa85caef
##CALIB_HASH : 6abaa72c-aa41-8738-0be9-f592914732f3
##WORKING    : 15.0 mm
##DET_NAME   : EDAX All
##DET_MODE   : MediumLE
#SPECTRUM    :
25,
373,
9268,
12583,
81159,
7698,
7686,
24560,
5613,
5008,
5554,
6217,
42980,
21679,
4376,
4334,
4776,
4249,
4156,
4299,
4096,
3801,
3826,
3596,
3514,
3417,
3207,
3092,
3774,
3015,
2916,
4552,
31693,
3005,
7581,
10015,
3168,
6699,
2110,
2728,
2831,
2394,
9468,
2416,
1619,
1580,
2250,
1700,
1383,
2277,
1845,
1279,
1150,
1241,
1256,
1236,
1043,
1647,
1453,
969,
935,
2000,
2882,
992,
874,
720,
683,
712,
969,
799,
579,
578,
567,
556,
504,
508,
452,
399,
436,
367,
370,
371,
327,
330,
287,
221,
276,
234,
240,
210,
218,
185,
144,
148,
128,
127,
106,
93,
85,
90,
67,
49,
46,
24,
22,
21,
9,
5,
2,
3,
0,
1,
0,
1,
0,
3,
0,
0,
0,
1,
1,
0,
1,
1,
1,
0,
2,
0,
1,
0,
0,
1,
0,
0,
0,
0,
0,
0,
0,
0,
0,
1,
0,
0,
0,
0,
0,
0,
0,
0,
0,
0,
0,
0,
0,
0,
0,
0,
0,
0,
0,
0,
0,
0,
0,
0,
0,
1,
0,
0,
0,
0,
0,
0,
0,
0,
0,
0,
0,
0,
0,
0,
0,
0,
0,
0,
0,
0,
0,
0,
0,
0,
0,
0,
0,
0,
0,
0,
0,
0,
0,
0,
0,
0,
0,
0,
0,
0,
0,
0,
0,
0,
0,
0,
0,
0,
0,
0,
0,
0,
0,
0,
0,
0,
0,
0,
0,
0,
0,
0,
0,
0,
0,
0,
0,
0,
0,
0,
0,
0,
0,
0,
0,
0,
0,
0,
0,
0,
0,
0,
0,
0,
0,
0,
0,
0,
0,
0,
0,
0,
0,
0,
0,
0,
0,
0,
0,
0,
0,
0,
0,
0,
0,
0,
0,
0,
0,
0,
0,
0,
0,
0,
0,
0,
0,
0,
0,
0,
0,
0,
0,
0,
0,
0,
#ENDOFDATA   :