File: N132962/Quantification/15 keV/GMIIIA/GMIIIA K251[0][4].msa
#FORMAT      : EMSA/MAS Spectral Data File
#VERSION     : 1.0
#TITLE       : GMIIIA K251[0][all]
#DATE        : 22-SEP-2025
#TIME        : 14:56
#OWNER       : Unknown
#NPOINTS     : 4096
#NCOLUMNS    : 1
#XUNITS      : eV
#YUNITS      : counts
#DATATYPE    : Y
#XPERCHAN    : 9.99778
#OFFSET      : 1.69135
#BEAMKV      : 15
#SIGNALTYPE  : EDS
#ELEVANGLE   : 35
#AZIMANGLE   : 0
#LIVETIME    : 239.982
#REALTIME    : 259.179
#PROBECUR    : 1.21732
#TAUWIND     : 0
#TDEADLYR    : 0
#TACTLYR     : 0.045
#TALWIND     : 0.025
#CHOFFSET    : 0.0
#XLABEL      : Energy (eV)
#YLABEL      : Counts
#XPOSITION   : 7.07991
#YPOSITION   : 2.4648
#ZPOSITION   : 37.36299
#EDSDET      : SD
##SPECIMEN   : GMIIIA K251[0][all]
##D2STDCMP   : K251,(O:23.02),(Al:1.32),(Si:14.02),(Ba:8.96),(Ta:4.09),(Pb:44.1),(Bi:4.48)
##DET_HASH   : 12273538-fd48-a23f-0a19-f1e6fa85caef
##CALIB_HASH : 6abaa72c-aa41-8738-0be9-f592914732f3
##WORKING    : 15.0 mm
##DET_NAME   : EDAX All
##DET_MODE   : MediumLE
#SPECTRUM    :
26,
566,
12467,
9276,
39707,
7812,
7243,
8162,
7705,
8623,
9565,
12966,
50697,
30159,
7273,
6715,
12090,
79268,
18918,
8735,
4904,
4853,
5692,
4690,
4235,
4321,
4036,
4041,
4228,
4053,
3713,
4197,
11648,
3633,
5101,
5537,
3430,
4380,
3047,
3145,
3126,
2938,
2739,
2656,
2504,
2420,
2443,
2329,
2202,
2197,
1988,
2032,
1944,
1962,
1823,
1870,
1680,
1709,
2289,
1760,
1531,
1485,
1471,
1376,
1324,
1296,
1390,
1351,
1175,
1189,
1095,
970,
1006,
930,
977,
1643,
1164,
841,
849,
705,
645,
653,
602,
595,
562,
516,
472,
462,
445,
391,
480,
370,
364,
301,
252,
231,
218,
184,
158,
160,
153,
99,
107,
73,
61,
39,
22,
7,
1,
5,
5,
4,
5,
0,
0,
0,
1,
0,
1,
0,
0,
2,
0,
0,
2,
4,
1,
1,
1,
0,
0,
0,
1,
0,
3,
0,
0,
1,
3,
0,
0,
0,
1,
0,
1,
0,
0,
1,
0,
1,
0,
0,
0,
0,
0,
0,
0,
0,
0,
0,
0,
0,
0,
0,
0,
0,
0,
0,
0,
0,
0,
0,
0,
0,
0,
0,
0,
1,
0,
0,
0,
0,
0,
0,
0,
0,
0,
0,
0,
0,
0,
0,
0,
0,
0,
0,
0,
0,
0,
0,
0,
0,
0,
0,
0,
0,
0,
0,
0,
0,
0,
0,
0,
0,
0,
0,
0,
0,
0,
0,
0,
0,
0,
0,
0,
0,
0,
0,
0,
0,
0,
0,
0,
0,
0,
0,
0,
0,
0,
0,
0,
0,
0,
0,
0,
0,
0,
0,
0,
0,
0,
0,
0,
0,
0,
0,
0,
0,
0,
0,
0,
0,
0,
0,
0,
0,
0,
0,
0,
0,
0,
0,
0,
0,
0,
0,
0,
0,
0,
0,
0,
0,
0,
0,
0,
0,
0,
0,
0,
0,
0,
0,
0,
0,
#ENDOFDATA   :