File: N132962/Quantification/15 keV/GMIIIA/GMIIIA K230[0][4].msa
#FORMAT      : EMSA/MAS Spectral Data File
#VERSION     : 1.0
#TITLE       : GMIIIA K230[0][all]
#DATE        : 22-SEP-2025
#TIME        : 14:31
#OWNER       : Unknown
#NPOINTS     : 4096
#NCOLUMNS    : 1
#XUNITS      : eV
#YUNITS      : counts
#DATATYPE    : Y
#XPERCHAN    : 9.99778
#OFFSET      : 1.69135
#BEAMKV      : 15
#SIGNALTYPE  : EDS
#ELEVANGLE   : 35
#AZIMANGLE   : 0
#LIVETIME    : 239.844
#REALTIME    : 258.607
#PROBECUR    : 1.21983
#TAUWIND     : 0
#TDEADLYR    : 0
#TACTLYR     : 0.045
#TALWIND     : 0.025
#CHOFFSET    : 0.0
#XLABEL      : Energy (eV)
#YLABEL      : Counts
#XPOSITION   : 3.84332
#YPOSITION   : 0.88108
#ZPOSITION   : 37.36299
#EDSDET      : SD
##SPECIMEN   : GMIIIA K230[0][all]
##D2STDCMP   : K230,(O:24.49),(Al:2.65),(Si:14.02),(Zn:4.02),(Ba:8.96),(Ta:4.09),(Pb:41.77)
##DET_HASH   : 12273538-fd48-a23f-0a19-f1e6fa85caef
##CALIB_HASH : 6abaa72c-aa41-8738-0be9-f592914732f3
##WORKING    : 15.0 mm
##DET_NAME   : EDAX All
##DET_MODE   : MediumLE
#SPECTRUM    :
32,
511,
12296,
9355,
44544,
7861,
7362,
17154,
7829,
7993,
9701,
15040,
47748,
28467,
7662,
6538,
11271,
68799,
13371,
8249,
4430,
4647,
5325,
4409,
4166,
4223,
3909,
3914,
3920,
3813,
3617,
3901,
11295,
3448,
4769,
5359,
3283,
4078,
2849,
2992,
2959,
2841,
2624,
2441,
2298,
2291,
2239,
2247,
2018,
2088,
1876,
1947,
1867,
1748,
1675,
1709,
1611,
1640,
2113,
1516,
1370,
2010,
2261,
1308,
1253,
1208,
1238,
1261,
1251,
1222,
969,
871,
935,
867,
845,
1480,
1076,
739,
761,
662,
603,
587,
541,
515,
508,
463,
423,
414,
346,
415,
469,
339,
268,
254,
202,
210,
187,
158,
148,
132,
104,
88,
90,
75,
45,
25,
15,
8,
3,
3,
4,
3,
1,
4,
2,
1,
1,
0,
3,
0,
0,
2,
3,
0,
1,
1,
1,
1,
1,
0,
3,
0,
1,
0,
1,
1,
0,
0,
1,
2,
0,
0,
0,
1,
0,
0,
1,
1,
0,
0,
1,
0,
0,
0,
0,
0,
0,
0,
0,
0,
0,
0,
0,
0,
0,
0,
1,
0,
0,
0,
0,
0,
0,
0,
0,
0,
0,
0,
0,
0,
0,
0,
0,
0,
0,
0,
0,
0,
0,
0,
0,
0,
0,
0,
0,
0,
0,
0,
0,
0,
0,
0,
0,
0,
0,
0,
0,
0,
0,
0,
0,
0,
0,
0,
0,
0,
0,
0,
0,
0,
0,
0,
0,
0,
0,
0,
0,
0,
0,
0,
0,
0,
0,
0,
0,
0,
0,
0,
0,
0,
0,
0,
0,
0,
0,
0,
0,
0,
0,
0,
0,
0,
0,
0,
0,
0,
0,
0,
0,
0,
0,
0,
0,
0,
0,
0,
0,
0,
0,
0,
0,
0,
0,
0,
0,
0,
0,
0,
0,
0,
0,
0,
0,
0,
0,
0,
0,
0,
0,
0,
0,
0,
0,
0,
#ENDOFDATA   :