File: N132962/Quantification/15 keV/GMIIIA/GMIIIA K1053[3][4].msa
#FORMAT      : EMSA/MAS Spectral Data File
#VERSION     : 1.0
#TITLE       : GMIIIA K1053[3][all]
#DATE        : 22-SEP-2025
#TIME        : 21:13
#OWNER       : Unknown
#NPOINTS     : 4096
#NCOLUMNS    : 1
#XUNITS      : eV
#YUNITS      : counts
#DATATYPE    : Y
#XPERCHAN    : 9.99778
#OFFSET      : 1.69135
#BEAMKV      : 15
#SIGNALTYPE  : EDS
#ELEVANGLE   : 35
#AZIMANGLE   : 0
#LIVETIME    : 239.904
#REALTIME    : 261.037
#PROBECUR    : 1.21822
#TAUWIND     : 0
#TDEADLYR    : 0
#TACTLYR     : 0.045
#TALWIND     : 0.025
#CHOFFSET    : 0.0
#XLABEL      : Energy (eV)
#YLABEL      : Counts
#XPOSITION   : 4.48796
#YPOSITION   : 15.45677
#ZPOSITION   : 37.36299
#EDSDET      : SD
##SPECIMEN   : GMIIIA K1053[3][all]
##D2STDCMP   : K1053,(O:16.13),(F:0.39),(Si:9.35),(Cl:0.64),(Br:1.09),(I:1.37),(Pb:71.02)
##DET_HASH   : 12273538-fd48-a23f-0a19-f1e6fa85caef
##CALIB_HASH : 6abaa72c-aa41-8738-0be9-f592914732f3
##WORKING    : 15.0 mm
##DET_NAME   : EDAX All
##DET_MODE   : MediumLE
#SPECTRUM    :
23,
754,
14589,
8450,
28194,
10466,
8203,
8839,
9216,
10089,
10624,
13273,
34205,
29990,
8551,
8721,
17468,
132250,
22296,
13284,
5349,
5648,
6888,
5288,
4861,
4988,
4626,
4642,
5848,
4602,
5076,
4478,
4435,
4233,
4061,
4082,
3930,
3722,
3622,
3551,
3470,
3384,
3258,
3200,
3090,
2913,
3011,
2846,
2825,
2678,
2629,
2498,
2455,
2415,
2299,
2235,
2089,
2036,
1994,
1993,
1922,
1834,
1788,
1731,
1685,
1676,
1601,
1487,
1440,
1429,
1330,
1349,
1216,
1191,
1308,
2443,
1618,
978,
951,
905,
844,
824,
782,
760,
715,
640,
614,
606,
563,
629,
710,
495,
403,
401,
343,
332,
260,
252,
230,
217,
146,
141,
127,
120,
66,
57,
30,
9,
3,
6,
7,
4,
5,
3,
4,
4,
2,
3,
1,
3,
1,
1,
3,
1,
2,
4,
1,
1,
1,
1,
3,
3,
1,
0,
1,
1,
0,
1,
1,
3,
0,
0,
2,
1,
1,
1,
0,
1,
1,
0,
0,
0,
0,
2,
0,
0,
0,
1,
1,
0,
0,
0,
1,
0,
0,
0,
0,
0,
0,
0,
0,
0,
0,
0,
0,
1,
0,
0,
0,
0,
1,
0,
0,
0,
0,
0,
0,
0,
0,
1,
0,
0,
0,
0,
0,
0,
0,
0,
0,
0,
0,
0,
0,
0,
0,
0,
0,
0,
0,
0,
0,
0,
0,
0,
0,
0,
0,
0,
0,
0,
0,
0,
0,
0,
0,
0,
0,
0,
0,
0,
0,
0,
0,
0,
0,
0,
0,
0,
0,
0,
0,
0,
0,
0,
0,
0,
0,
0,
0,
0,
0,
0,
0,
0,
0,
0,
0,
0,
0,
0,
0,
0,
0,
0,
0,
0,
0,
0,
0,
0,
0,
0,
0,
0,
0,
0,
0,
0,
0,
0,
0,
0,
0,
0,
0,
0,
0,
0,
0,
0,
0,
0,
0,
0,
#ENDOFDATA   :