File: N132962/Quantification/15 keV/GMIIIA/GMIIIA K1053[4][4].msa
#FORMAT      : EMSA/MAS Spectral Data File
#VERSION     : 1.0
#TITLE       : GMIIIA K1053[4][all]
#DATE        : 22-SEP-2025
#TIME        : 21:15
#OWNER       : Unknown
#NPOINTS     : 4096
#NCOLUMNS    : 1
#XUNITS      : eV
#YUNITS      : counts
#DATATYPE    : Y
#XPERCHAN    : 9.99778
#OFFSET      : 1.69135
#BEAMKV      : 15
#SIGNALTYPE  : EDS
#ELEVANGLE   : 35
#AZIMANGLE   : 0
#LIVETIME    : 239.909
#REALTIME    : 261.028
#PROBECUR    : 1.21822
#TAUWIND     : 0
#TDEADLYR    : 0
#TACTLYR     : 0.045
#TALWIND     : 0.025
#CHOFFSET    : 0.0
#XLABEL      : Energy (eV)
#YLABEL      : Counts
#XPOSITION   : 4.54539
#YPOSITION   : 15.4409
#ZPOSITION   : 37.36299
#EDSDET      : SD
##SPECIMEN   : GMIIIA K1053[4][all]
##D2STDCMP   : K1053,(O:16.13),(F:0.39),(Si:9.35),(Cl:0.64),(Br:1.09),(I:1.37),(Pb:71.02)
##DET_HASH   : 12273538-fd48-a23f-0a19-f1e6fa85caef
##CALIB_HASH : 6abaa72c-aa41-8738-0be9-f592914732f3
##WORKING    : 15.0 mm
##DET_NAME   : EDAX All
##DET_MODE   : MediumLE
#SPECTRUM    :
20,
800,
14340,
8446,
27906,
10564,
8221,
8806,
9211,
9836,
10774,
13097,
34214,
29681,
8699,
8713,
17436,
131594,
22481,
13280,
5472,
5777,
7051,
5123,
4880,
5147,
4677,
4691,
5899,
4579,
4973,
4491,
4590,
4190,
4125,
3996,
3758,
3676,
3546,
3562,
3433,
3391,
3173,
3021,
3084,
3009,
2942,
2830,
2732,
2649,
2661,
2571,
2385,
2395,
2346,
2238,
2166,
2150,
2083,
2040,
1863,
1842,
1777,
1685,
1725,
1644,
1551,
1519,
1543,
1337,
1291,
1286,
1317,
1215,
1258,
2421,
1705,
1035,
920,
910,
923,
793,
837,
748,
728,
647,
614,
627,
553,
577,
761,
476,
423,
399,
339,
296,
276,
237,
245,
238,
165,
148,
132,
103,
78,
52,
30,
10,
3,
10,
4,
0,
4,
2,
3,
4,
5,
5,
2,
1,
2,
2,
1,
2,
1,
1,
1,
0,
0,
0,
4,
2,
3,
1,
2,
0,
1,
1,
0,
0,
1,
1,
2,
0,
2,
0,
1,
0,
0,
0,
0,
1,
0,
0,
0,
1,
0,
0,
0,
0,
1,
0,
1,
0,
1,
0,
0,
0,
0,
0,
0,
0,
0,
0,
0,
0,
0,
0,
0,
0,
0,
0,
0,
0,
0,
0,
0,
1,
0,
0,
0,
1,
0,
0,
0,
0,
0,
0,
0,
0,
0,
0,
0,
0,
0,
0,
0,
0,
0,
0,
0,
0,
0,
0,
0,
0,
0,
0,
0,
0,
0,
0,
0,
0,
0,
0,
0,
0,
0,
0,
0,
0,
0,
0,
0,
0,
0,
0,
0,
0,
0,
0,
0,
0,
0,
0,
0,
0,
0,
0,
0,
0,
0,
0,
0,
0,
0,
0,
0,
0,
0,
0,
0,
0,
0,
0,
0,
0,
0,
0,
0,
0,
0,
0,
0,
0,
0,
0,
0,
0,
0,
0,
0,
0,
0,
0,
0,
0,
0,
0,
0,
0,
0,
0,
#ENDOFDATA   :