File: N132962/Quantification/15 keV/GMIIIA/GMIIIA K1053[1][4].msa
#FORMAT      : EMSA/MAS Spectral Data File
#VERSION     : 1.0
#TITLE       : GMIIIA K1053[1][all]
#DATE        : 22-SEP-2025
#TIME        : 21:11
#OWNER       : Unknown
#NPOINTS     : 4096
#NCOLUMNS    : 1
#XUNITS      : eV
#YUNITS      : counts
#DATATYPE    : Y
#XPERCHAN    : 9.99778
#OFFSET      : 1.69135
#BEAMKV      : 15
#SIGNALTYPE  : EDS
#ELEVANGLE   : 35
#AZIMANGLE   : 0
#LIVETIME    : 239.904
#REALTIME    : 261.03
#PROBECUR    : 1.21822
#TAUWIND     : 0
#TDEADLYR    : 0
#TACTLYR     : 0.045
#TALWIND     : 0.025
#CHOFFSET    : 0.0
#XLABEL      : Energy (eV)
#YLABEL      : Counts
#XPOSITION   : 4.51383
#YPOSITION   : 15.42983
#ZPOSITION   : 37.36299
#EDSDET      : SD
##SPECIMEN   : GMIIIA K1053[1][all]
##D2STDCMP   : K1053,(O:16.13),(F:0.39),(Si:9.35),(Cl:0.64),(Br:1.09),(I:1.37),(Pb:71.02)
##DET_HASH   : 12273538-fd48-a23f-0a19-f1e6fa85caef
##CALIB_HASH : 6abaa72c-aa41-8738-0be9-f592914732f3
##WORKING    : 15.0 mm
##DET_NAME   : EDAX All
##DET_MODE   : MediumLE
#SPECTRUM    :
30,
751,
14347,
8532,
28122,
10231,
8311,
8822,
9203,
10140,
10796,
13195,
34303,
29998,
8651,
8627,
17481,
132081,
22278,
13478,
5379,
5598,
6808,
5202,
4856,
4885,
4844,
4658,
5922,
4519,
4979,
4484,
4565,
4259,
4211,
3991,
3848,
3738,
3609,
3437,
3454,
3300,
3283,
3223,
3073,
3086,
2924,
2832,
2704,
2645,
2640,
2519,
2370,
2476,
2279,
2220,
2155,
2182,
2057,
2073,
1911,
1880,
1813,
1739,
1659,
1612,
1615,
1573,
1473,
1428,
1347,
1306,
1204,
1121,
1333,
2459,
1718,
1001,
901,
882,
857,
830,
764,
784,
735,
673,
653,
584,
592,
524,
738,
502,
396,
413,
334,
308,
260,
248,
248,
212,
181,
178,
143,
108,
65,
49,
35,
11,
8,
5,
5,
4,
6,
4,
2,
2,
0,
3,
3,
2,
0,
3,
0,
2,
3,
3,
1,
3,
1,
1,
0,
0,
0,
2,
4,
1,
0,
3,
0,
2,
0,
0,
0,
2,
0,
1,
0,
0,
0,
1,
0,
0,
1,
1,
1,
0,
0,
0,
2,
0,
0,
0,
0,
0,
1,
0,
0,
0,
0,
0,
0,
0,
0,
0,
0,
0,
0,
0,
0,
0,
0,
0,
0,
0,
0,
0,
0,
0,
0,
0,
0,
0,
0,
0,
0,
0,
0,
0,
0,
0,
0,
0,
0,
0,
0,
0,
0,
0,
0,
0,
0,
0,
0,
0,
0,
0,
0,
0,
0,
0,
0,
0,
0,
0,
0,
0,
0,
0,
0,
0,
0,
0,
0,
0,
0,
0,
0,
0,
0,
0,
0,
0,
0,
0,
0,
0,
0,
0,
0,
0,
0,
0,
0,
0,
0,
0,
0,
0,
0,
0,
0,
0,
0,
0,
0,
0,
0,
0,
0,
0,
0,
0,
0,
0,
0,
0,
0,
0,
0,
0,
0,
0,
0,
0,
0,
0,
0,
0,
0,
0,
0,
0,
0,
0,
#ENDOFDATA   :