File: N132962/Quantification/15 keV/GMIIIA/GMIIIA K227[2][4].msa
#FORMAT      : EMSA/MAS Spectral Data File
#VERSION     : 1.0
#TITLE       : GMIIIA K227[2][all]
#DATE        : 22-SEP-2025
#TIME        : 14:17
#OWNER       : Unknown
#NPOINTS     : 4096
#NCOLUMNS    : 1
#XUNITS      : eV
#YUNITS      : counts
#DATATYPE    : Y
#XPERCHAN    : 9.99778
#OFFSET      : 1.69135
#BEAMKV      : 15
#SIGNALTYPE  : EDS
#ELEVANGLE   : 35
#AZIMANGLE   : 0
#LIVETIME    : 240.363
#REALTIME    : 261.675
#PROBECUR    : 1.21983
#TAUWIND     : 0
#TDEADLYR    : 0
#TACTLYR     : 0.045
#TALWIND     : 0.025
#CHOFFSET    : 0.0
#XLABEL      : Energy (eV)
#YLABEL      : Counts
#XPOSITION   : 7.72232
#YPOSITION   : 0.43815
#ZPOSITION   : 37.36299
#EDSDET      : SD
##SPECIMEN   : GMIIIA K227[2][all]
##D2STDCMP   : K227,(O:16.39),(Si:9.35),(Pb:74.27)
##DET_HASH   : 12273538-fd48-a23f-0a19-f1e6fa85caef
##CALIB_HASH : 6abaa72c-aa41-8738-0be9-f592914732f3
##WORKING    : 15.0 mm
##DET_NAME   : EDAX All
##DET_MODE   : MediumLE
#SPECTRUM    :
28,
745,
14667,
8589,
28853,
10725,
8066,
8695,
9223,
10091,
10490,
10752,
35402,
30834,
8866,
8964,
18388,
137864,
22692,
11718,
5120,
5616,
6868,
5183,
4817,
4918,
4636,
4758,
4446,
4515,
4474,
4299,
4548,
4156,
4209,
3993,
3863,
3730,
3724,
3541,
3713,
3391,
3360,
3169,
3204,
3117,
2981,
2882,
2788,
2693,
2690,
2564,
2460,
2400,
2300,
2331,
2143,
2129,
2018,
1944,
1980,
1859,
1798,
1732,
1640,
1643,
1597,
1520,
1519,
1419,
1348,
1327,
1295,
1215,
1330,
2451,
1733,
1034,
989,
904,
853,
852,
837,
731,
641,
648,
668,
580,
585,
592,
735,
541,
401,
412,
356,
291,
279,
246,
248,
191,
169,
136,
143,
122,
79,
55,
33,
14,
6,
4,
5,
4,
3,
6,
1,
2,
4,
2,
3,
3,
1,
0,
1,
1,
3,
1,
3,
1,
1,
0,
4,
1,
1,
2,
1,
2,
1,
1,
0,
3,
0,
0,
1,
1,
0,
0,
0,
0,
1,
0,
1,
0,
0,
0,
0,
1,
0,
0,
0,
0,
0,
1,
0,
0,
0,
0,
0,
0,
0,
0,
0,
0,
0,
0,
0,
0,
0,
0,
0,
0,
0,
0,
0,
0,
0,
0,
0,
0,
0,
0,
0,
0,
0,
0,
0,
0,
0,
0,
0,
0,
0,
0,
0,
0,
0,
0,
0,
0,
0,
0,
0,
0,
0,
0,
0,
0,
0,
0,
0,
0,
0,
0,
0,
0,
0,
0,
0,
0,
0,
0,
0,
0,
0,
0,
0,
0,
0,
0,
0,
0,
0,
0,
0,
0,
0,
0,
0,
0,
0,
0,
0,
0,
0,
0,
0,
0,
0,
0,
0,
0,
0,
0,
0,
0,
0,
0,
0,
0,
0,
0,
0,
0,
0,
0,
0,
0,
0,
0,
0,
0,
0,
0,
0,
0,
0,
0,
0,
0,
0,
0,
0,
0,
0,
0,
#ENDOFDATA   :