File: N132962/Quantification/15 keV/GMIIIA/GMIIIA K1235[7][4].msa
#FORMAT      : EMSA/MAS Spectral Data File
#VERSION     : 1.0
#TITLE       : GMIIIA K1235[7][all]
#DATE        : 22-SEP-2025
#TIME        : 23:22
#OWNER       : Unknown
#NPOINTS     : 4096
#NCOLUMNS    : 1
#XUNITS      : eV
#YUNITS      : counts
#DATATYPE    : Y
#XPERCHAN    : 9.99778
#OFFSET      : 1.69135
#BEAMKV      : 15
#SIGNALTYPE  : EDS
#ELEVANGLE   : 35
#AZIMANGLE   : 0
#LIVETIME    : 240.042
#REALTIME    : 255.92
#PROBECUR    : 1.21388
#TAUWIND     : 0
#TDEADLYR    : 0
#TACTLYR     : 0.045
#TALWIND     : 0.025
#CHOFFSET    : 0.0
#XLABEL      : Energy (eV)
#YLABEL      : Counts
#XPOSITION   : 9.25745
#YPOSITION   : 18.99052
#ZPOSITION   : 37.36299
#EDSDET      : SD
##SPECIMEN   : GMIIIA K1235[7][all]
##D2STDCMP   : K1235,(O:39.17),(Al:8.86),(Si:21.16),(Ca:12.15),(Pd:1.74),(Ba:15.23),(Hf:1.7)
##DET_HASH   : 12273538-fd48-a23f-0a19-f1e6fa85caef
##CALIB_HASH : 6abaa72c-aa41-8738-0be9-f592914732f3
##WORKING    : 15.0 mm
##DET_NAME   : EDAX All
##DET_MODE   : MediumLE
#SPECTRUM    :
17,
271,
12468,
8518,
62571,
4374,
4656,
5768,
5142,
5673,
9661,
28579,
52916,
24156,
3861,
3433,
3902,
3281,
3171,
3217,
2983,
2939,
2864,
2838,
2565,
2884,
23469,
8994,
3452,
5245,
2100,
2648,
14582,
1915,
3920,
4951,
2017,
3425,
1536,
1818,
1722,
1512,
1339,
1237,
1114,
1107,
1070,
1030,
1006,
865,
913,
850,
788,
826,
813,
752,
913,
771,
656,
616,
575,
552,
571,
568,
645,
555,
497,
508,
458,
411,
400,
391,
374,
343,
345,
334,
328,
298,
282,
273,
220,
237,
213,
200,
185,
160,
159,
167,
144,
131,
124,
115,
103,
110,
81,
78,
69,
73,
70,
40,
31,
28,
28,
23,
18,
6,
5,
1,
1,
2,
0,
0,
0,
1,
0,
0,
0,
3,
0,
0,
2,
0,
0,
1,
0,
2,
0,
1,
0,
0,
0,
0,
0,
0,
0,
0,
0,
0,
0,
0,
0,
0,
0,
0,
0,
0,
0,
0,
0,
0,
0,
0,
0,
0,
0,
0,
0,
0,
0,
0,
0,
0,
0,
0,
0,
0,
0,
0,
0,
0,
0,
0,
0,
0,
0,
0,
0,
0,
0,
0,
0,
0,
0,
0,
0,
0,
0,
0,
0,
0,
0,
0,
0,
0,
0,
0,
0,
0,
0,
0,
0,
0,
0,
0,
0,
0,
0,
0,
0,
0,
0,
0,
0,
0,
0,
0,
0,
0,
0,
0,
0,
0,
0,
0,
0,
0,
0,
0,
0,
0,
0,
0,
0,
0,
0,
0,
0,
0,
0,
0,
0,
0,
0,
0,
0,
0,
0,
0,
0,
0,
0,
0,
0,
0,
0,
0,
0,
0,
0,
0,
0,
0,
0,
0,
0,
0,
0,
0,
0,
0,
0,
0,
0,
0,
0,
0,
0,
0,
0,
0,
0,
0,
0,
0,
0,
0,
0,
0,
0,
0,
0,
0,
0,
0,
#ENDOFDATA   :