File: N132962/Quantification/15 keV/GMIIIA/GMIIIA K229[6][4].msa
#FORMAT      : EMSA/MAS Spectral Data File
#VERSION     : 1.0
#TITLE       : GMIIIA K229[6][all]
#DATE        : 22-SEP-2025
#TIME        : 14:30
#OWNER       : Unknown
#NPOINTS     : 4096
#NCOLUMNS    : 1
#XUNITS      : eV
#YUNITS      : counts
#DATATYPE    : Y
#XPERCHAN    : 9.99778
#OFFSET      : 1.69135
#BEAMKV      : 15
#SIGNALTYPE  : EDS
#ELEVANGLE   : 35
#AZIMANGLE   : 0
#LIVETIME    : 239.832
#REALTIME    : 260.072
#PROBECUR    : 1.21983
#TAUWIND     : 0
#TDEADLYR    : 0
#TACTLYR     : 0.045
#TALWIND     : 0.025
#CHOFFSET    : 0.0
#XLABEL      : Energy (eV)
#YLABEL      : Counts
#XPOSITION   : 5.91893
#YPOSITION   : 0.66477
#ZPOSITION   : 37.36299
#EDSDET      : SD
##SPECIMEN   : GMIIIA K229[6][all]
##D2STDCMP   : K229,(O:20.99),(Si:14.02),(Pb:64.98)
##DET_HASH   : 12273538-fd48-a23f-0a19-f1e6fa85caef
##CALIB_HASH : 6abaa72c-aa41-8738-0be9-f592914732f3
##WORKING    : 15.0 mm
##DET_NAME   : EDAX All
##DET_MODE   : MediumLE
#SPECTRUM    :
25,
622,
13416,
8361,
33768,
8508,
7549,
8168,
8739,
9155,
9668,
10300,
45042,
33456,
7865,
7867,
15632,
114661,
19544,
10567,
4782,
5237,
6192,
4832,
4496,
4474,
4282,
4216,
4267,
4144,
4152,
3887,
3906,
3689,
3688,
3613,
3443,
3349,
3229,
3174,
3065,
2989,
2887,
2903,
2784,
2746,
2623,
2527,
2548,
2359,
2259,
2165,
2196,
2080,
2086,
1986,
1998,
1874,
1845,
1716,
1682,
1643,
1596,
1507,
1397,
1492,
1431,
1261,
1231,
1257,
1162,
1147,
1050,
1029,
1096,
2136,
1369,
877,
824,
807,
703,
744,
643,
664,
622,
570,
559,
552,
487,
469,
631,
459,
318,
343,
276,
272,
218,
186,
212,
166,
119,
132,
97,
86,
69,
46,
24,
8,
4,
3,
2,
3,
3,
3,
1,
4,
1,
1,
2,
2,
1,
0,
0,
0,
4,
2,
0,
2,
2,
2,
1,
2,
1,
0,
2,
1,
2,
2,
1,
0,
1,
0,
1,
0,
0,
1,
0,
0,
2,
0,
1,
0,
0,
0,
0,
1,
0,
1,
0,
0,
1,
0,
0,
1,
0,
0,
0,
0,
0,
0,
0,
0,
0,
0,
0,
0,
0,
0,
0,
0,
0,
0,
0,
0,
0,
0,
0,
0,
0,
0,
0,
0,
0,
0,
0,
0,
0,
0,
0,
0,
0,
0,
0,
0,
0,
0,
0,
0,
0,
0,
0,
0,
0,
0,
0,
0,
0,
0,
0,
0,
0,
0,
0,
0,
0,
0,
0,
0,
0,
0,
0,
0,
0,
0,
0,
0,
0,
0,
0,
0,
0,
0,
0,
0,
0,
0,
0,
0,
0,
0,
0,
0,
0,
0,
0,
0,
0,
0,
0,
0,
0,
0,
0,
0,
0,
0,
0,
0,
0,
0,
0,
0,
0,
0,
0,
0,
0,
0,
0,
0,
0,
0,
0,
0,
0,
0,
0,
0,
0,
0,
0,
0,
0,
0,
#ENDOFDATA   :