File: N132962/Quantification/15 keV/GMIIIA/GMIIIA K1070[3][4].msa
#FORMAT      : EMSA/MAS Spectral Data File
#VERSION     : 1.0
#TITLE       : GMIIIA K1070[3][all]
#DATE        : 22-SEP-2025
#TIME        : 21:03
#OWNER       : Unknown
#NPOINTS     : 4096
#NCOLUMNS    : 1
#XUNITS      : eV
#YUNITS      : counts
#DATATYPE    : Y
#XPERCHAN    : 9.99778
#OFFSET      : 1.69135
#BEAMKV      : 15
#SIGNALTYPE  : EDS
#ELEVANGLE   : 35
#AZIMANGLE   : 0
#LIVETIME    : 239.984
#REALTIME    : 256.167
#PROBECUR    : 1.21822
#TAUWIND     : 0
#TDEADLYR    : 0
#TACTLYR     : 0.045
#TALWIND     : 0.025
#CHOFFSET    : 0.0
#XLABEL      : Energy (eV)
#YLABEL      : Counts
#XPOSITION   : 2.37856
#YPOSITION   : 15.67869
#ZPOSITION   : 37.36299
#EDSDET      : SD
##SPECIMEN   : GMIIIA K1070[3][all]
##D2STDCMP   : K1070,(O:34.31),(Mg:7.54),(Si:18.7),(Ca:8.93),(Zn:10.04),(Ba:11.2),(Pb:9.28)
##DET_HASH   : 12273538-fd48-a23f-0a19-f1e6fa85caef
##CALIB_HASH : 6abaa72c-aa41-8738-0be9-f592914732f3
##WORKING    : 15.0 mm
##DET_NAME   : EDAX All
##DET_MODE   : MediumLE
#SPECTRUM    :
32,
280,
10632,
8600,
57659,
5107,
6695,
29370,
6640,
52927,
5285,
6119,
43613,
23128,
4365,
3977,
5145,
16304,
5303,
4273,
3381,
3421,
3472,
3065,
2883,
3156,
18484,
7632,
3482,
4849,
2343,
2760,
11673,
2196,
3684,
4423,
2192,
3213,
1695,
1938,
1960,
1746,
1559,
1442,
1361,
1360,
1264,
1243,
1180,
1186,
1149,
1046,
1041,
1044,
936,
913,
854,
831,
815,
791,
729,
2144,
3131,
744,
604,
655,
598,
551,
894,
742,
536,
462,
449,
453,
425,
538,
438,
348,
322,
334,
298,
266,
302,
233,
242,
230,
214,
195,
186,
162,
169,
132,
129,
120,
110,
103,
96,
87,
82,
58,
52,
50,
48,
40,
26,
11,
8,
1,
1,
1,
2,
0,
0,
1,
0,
2,
2,
0,
1,
1,
1,
1,
0,
0,
1,
0,
0,
1,
0,
0,
0,
0,
1,
0,
1,
0,
0,
0,
0,
0,
0,
0,
0,
0,
1,
0,
0,
0,
0,
0,
0,
0,
0,
0,
0,
0,
0,
0,
0,
0,
0,
0,
0,
0,
0,
0,
0,
0,
0,
0,
0,
0,
0,
0,
0,
0,
0,
0,
0,
0,
0,
0,
0,
0,
0,
0,
0,
0,
0,
0,
0,
0,
0,
0,
0,
0,
0,
0,
0,
0,
0,
0,
0,
0,
0,
0,
0,
0,
0,
0,
0,
0,
0,
0,
0,
0,
0,
0,
0,
0,
0,
0,
0,
0,
0,
0,
0,
0,
0,
0,
0,
0,
0,
0,
0,
0,
0,
0,
0,
0,
0,
0,
0,
0,
0,
0,
0,
0,
0,
0,
0,
0,
0,
0,
0,
0,
0,
0,
0,
0,
0,
0,
0,
0,
0,
0,
0,
0,
0,
0,
0,
0,
0,
0,
0,
0,
0,
0,
0,
0,
0,
0,
0,
0,
0,
0,
0,
0,
0,
0,
0,
0,
0,
0,
#ENDOFDATA   :