File: N132962/Quantification/15 keV/GMIIIA/GMIIIA K253[4][4].msa
#FORMAT      : EMSA/MAS Spectral Data File
#VERSION     : 1.0
#TITLE       : GMIIIA K253[4][all]
#DATE        : 22-SEP-2025
#TIME        : 14:44
#OWNER       : Unknown
#NPOINTS     : 4096
#NCOLUMNS    : 1
#XUNITS      : eV
#YUNITS      : counts
#DATATYPE    : Y
#XPERCHAN    : 9.99778
#OFFSET      : 1.69135
#BEAMKV      : 15
#SIGNALTYPE  : EDS
#ELEVANGLE   : 35
#AZIMANGLE   : 0
#LIVETIME    : 239.9699
#REALTIME    : 257.124
#PROBECUR    : 1.21983
#TAUWIND     : 0
#TDEADLYR    : 0
#TACTLYR     : 0.045
#TALWIND     : 0.025
#CHOFFSET    : 0.0
#XLABEL      : Energy (eV)
#YLABEL      : Counts
#XPOSITION   : 2.52118
#YPOSITION   : 2.35389
#ZPOSITION   : 37.36299
#EDSDET      : SD
##SPECIMEN   : GMIIIA K253[4][all]
##D2STDCMP   : K253,(O:31.64),(Si:18.7),(Mn:6.32),(Co:1.97),(Cu:2.0),(Zn:8.03),(Ba:31.35)
##DET_HASH   : 12273538-fd48-a23f-0a19-f1e6fa85caef
##CALIB_HASH : 6abaa72c-aa41-8738-0be9-f592914732f3
##WORKING    : 15.0 mm
##DET_NAME   : EDAX All
##DET_MODE   : MediumLE
#SPECTRUM    :
26,
372,
9357,
12541,
80908,
7672,
7625,
24752,
5553,
5194,
5529,
6102,
42772,
21808,
4441,
4440,
4615,
4250,
4079,
4072,
4074,
3850,
3797,
3573,
3410,
3469,
3210,
3122,
3752,
3051,
2862,
4548,
31128,
2977,
7782,
10213,
3191,
6690,
2119,
2765,
2608,
2495,
9537,
2345,
1582,
1591,
2281,
1785,
1388,
2171,
1912,
1261,
1202,
1132,
1217,
1177,
1069,
1711,
1366,
975,
941,
2076,
2803,
891,
841,
728,
732,
710,
960,
778,
636,
560,
535,
533,
518,
496,
455,
416,
405,
376,
357,
380,
320,
331,
329,
276,
253,
244,
226,
220,
176,
169,
174,
143,
136,
108,
96,
93,
113,
59,
78,
71,
43,
30,
38,
29,
12,
5,
0,
1,
1,
0,
1,
1,
2,
0,
0,
0,
0,
1,
0,
0,
0,
0,
1,
1,
0,
1,
0,
1,
0,
0,
0,
2,
0,
0,
0,
0,
0,
0,
0,
0,
0,
0,
0,
0,
0,
0,
0,
0,
0,
1,
0,
0,
0,
0,
0,
0,
0,
0,
0,
0,
0,
0,
0,
0,
0,
0,
0,
0,
0,
0,
0,
0,
0,
0,
0,
0,
0,
0,
0,
0,
0,
0,
0,
0,
0,
0,
0,
0,
0,
0,
0,
0,
0,
0,
0,
0,
0,
0,
0,
0,
0,
0,
0,
0,
0,
0,
0,
0,
0,
0,
0,
0,
0,
0,
0,
0,
0,
0,
0,
0,
0,
0,
0,
0,
0,
0,
0,
0,
0,
0,
0,
0,
0,
0,
0,
0,
0,
0,
0,
0,
0,
0,
0,
0,
0,
0,
0,
0,
0,
0,
0,
0,
0,
0,
0,
0,
0,
0,
0,
0,
0,
0,
0,
0,
0,
0,
0,
0,
0,
0,
0,
0,
0,
0,
0,
0,
0,
0,
0,
0,
0,
0,
0,
0,
0,
0,
0,
0,
0,
0,
0,
0,
#ENDOFDATA   :