File: N132962/Quantification/15 keV/GMIIIA/GMIIIA K252[1][4].msa
#FORMAT      : EMSA/MAS Spectral Data File
#VERSION     : 1.0
#TITLE       : GMIIIA K252[1][all]
#DATE        : 22-SEP-2025
#TIME        : 14:49
#OWNER       : Unknown
#NPOINTS     : 4096
#NCOLUMNS    : 1
#XUNITS      : eV
#YUNITS      : counts
#DATATYPE    : Y
#XPERCHAN    : 9.99778
#OFFSET      : 1.69135
#BEAMKV      : 15
#SIGNALTYPE  : EDS
#ELEVANGLE   : 35
#AZIMANGLE   : 0
#LIVETIME    : 239.9865
#REALTIME    : 257.124
#PROBECUR    : 1.21732
#TAUWIND     : 0
#TDEADLYR    : 0
#TACTLYR     : 0.045
#TALWIND     : 0.025
#CHOFFSET    : 0.0
#XLABEL      : Energy (eV)
#YLABEL      : Counts
#XPOSITION   : 4.68898
#YPOSITION   : 2.61795
#ZPOSITION   : 37.36299
#EDSDET      : SD
##SPECIMEN   : GMIIIA K252[1][all]
##D2STDCMP   : K252,(O:30.83),(Si:18.7),(Mn:3.16),(Co:3.93),(Cu:3.99),(Zn:8.03),(Ba:31.35)
##DET_HASH   : 12273538-fd48-a23f-0a19-f1e6fa85caef
##CALIB_HASH : 6abaa72c-aa41-8738-0be9-f592914732f3
##WORKING    : 15.0 mm
##DET_NAME   : EDAX All
##DET_MODE   : MediumLE
#SPECTRUM    :
32,
423,
9143,
12348,
78882,
8434,
8914,
26054,
5575,
5214,
5610,
6180,
42996,
22088,
4254,
4330,
4794,
4357,
4289,
4251,
4037,
3740,
3869,
3595,
3483,
3376,
3116,
3096,
3870,
3117,
2865,
4673,
31484,
3016,
7663,
9983,
3178,
6619,
2198,
2670,
2821,
2314,
5989,
2040,
1637,
1560,
1917,
1559,
1419,
2954,
2597,
1224,
1219,
1250,
1222,
1274,
1014,
2205,
1739,
1027,
918,
2085,
2907,
911,
976,
765,
723,
730,
999,
780,
630,
622,
569,
529,
525,
462,
456,
420,
405,
396,
371,
345,
334,
328,
296,
285,
279,
252,
194,
190,
192,
172,
183,
143,
162,
130,
121,
113,
94,
82,
73,
60,
49,
35,
22,
20,
13,
8,
1,
1,
1,
0,
3,
1,
0,
0,
1,
0,
0,
1,
0,
0,
0,
1,
2,
0,
0,
0,
0,
0,
1,
0,
1,
2,
0,
1,
1,
1,
1,
0,
0,
0,
0,
0,
0,
0,
0,
0,
0,
0,
0,
0,
0,
1,
0,
0,
0,
0,
0,
0,
0,
0,
0,
0,
0,
0,
0,
0,
0,
0,
0,
0,
0,
0,
0,
0,
0,
0,
0,
0,
0,
0,
0,
0,
0,
0,
0,
0,
0,
0,
0,
0,
0,
0,
0,
0,
0,
0,
0,
0,
0,
0,
0,
0,
0,
0,
0,
0,
0,
0,
0,
0,
0,
0,
0,
0,
0,
0,
0,
0,
0,
0,
0,
0,
0,
0,
0,
0,
0,
0,
0,
0,
0,
0,
0,
0,
0,
0,
0,
0,
0,
0,
0,
0,
0,
0,
0,
0,
0,
0,
0,
0,
0,
0,
0,
0,
0,
0,
0,
0,
0,
0,
0,
0,
0,
0,
0,
0,
0,
0,
0,
0,
0,
0,
0,
0,
0,
0,
0,
0,
0,
0,
0,
0,
0,
0,
0,
0,
0,
0,
0,
0,
0,
0,
#ENDOFDATA   :