File: N132962/Quantification/15 keV/GMIIIA/GMIIIA K309[3][4].msa
#FORMAT      : EMSA/MAS Spectral Data File
#VERSION     : 1.0
#TITLE       : GMIIIA K309[3][all]
#DATE        : 22-SEP-2025
#TIME        : 15:23
#OWNER       : Unknown
#NPOINTS     : 4096
#NCOLUMNS    : 1
#XUNITS      : eV
#YUNITS      : counts
#DATATYPE    : Y
#XPERCHAN    : 9.99778
#OFFSET      : 1.69135
#BEAMKV      : 15
#SIGNALTYPE  : EDS
#ELEVANGLE   : 35
#AZIMANGLE   : 0
#LIVETIME    : 239.823
#REALTIME    : 255.338
#PROBECUR    : 1.21681
#TAUWIND     : 0
#TDEADLYR    : 0
#TACTLYR     : 0.045
#TALWIND     : 0.025
#CHOFFSET    : 0.0
#XLABEL      : Energy (eV)
#YLABEL      : Counts
#XPOSITION   : 12.50668
#YPOSITION   : 3.84334
#ZPOSITION   : 37.36299
#EDSDET      : SD
##SPECIMEN   : GMIIIA K309[3][all]
##D2STDCMP   : K309,(O:38.72),(Al:7.94),(Si:18.7),(Ca:10.72),(Fe:10.49),(Ba:13.43)
##DET_HASH   : 12273538-fd48-a23f-0a19-f1e6fa85caef
##CALIB_HASH : 6abaa72c-aa41-8738-0be9-f592914732f3
##WORKING    : 15.0 mm
##DET_NAME   : EDAX All
##DET_MODE   : MediumLE
#SPECTRUM    :
22,
294,
12626,
9054,
66913,
16619,
4298,
5314,
4680,
5206,
9028,
24286,
42324,
21063,
4094,
3542,
3829,
3441,
3315,
3328,
2970,
2827,
2816,
2772,
2670,
2832,
21254,
8289,
3246,
5001,
1980,
2583,
13000,
1884,
3751,
4494,
1922,
3230,
1424,
1747,
1730,
1455,
1314,
1220,
1174,
3506,
8692,
1106,
958,
979,
1815,
1392,
803,
778,
794,
675,
755,
664,
648,
673,
618,
602,
582,
512,
505,
484,
443,
450,
467,
461,
409,
384,
402,
367,
371,
313,
288,
284,
271,
247,
266,
239,
205,
216,
186,
163,
158,
146,
160,
143,
124,
123,
126,
91,
99,
62,
77,
58,
49,
47,
48,
27,
25,
27,
18,
16,
10,
3,
2,
1,
1,
0,
0,
1,
1,
0,
0,
0,
0,
0,
0,
0,
1,
0,
0,
1,
0,
0,
0,
0,
0,
0,
0,
0,
0,
0,
0,
0,
0,
0,
0,
0,
0,
0,
0,
0,
0,
0,
0,
0,
0,
0,
0,
0,
0,
0,
0,
0,
0,
0,
0,
0,
0,
0,
0,
0,
0,
0,
0,
0,
0,
0,
0,
0,
0,
0,
0,
0,
0,
0,
0,
0,
0,
0,
0,
0,
0,
0,
0,
0,
0,
0,
0,
0,
0,
0,
0,
0,
0,
0,
0,
0,
0,
0,
0,
0,
0,
0,
0,
0,
0,
0,
0,
0,
0,
0,
0,
0,
0,
0,
0,
0,
0,
0,
0,
0,
0,
0,
0,
0,
0,
0,
0,
0,
0,
0,
0,
0,
0,
0,
0,
0,
0,
0,
0,
0,
0,
0,
0,
0,
0,
0,
0,
0,
0,
0,
0,
0,
0,
0,
0,
0,
0,
0,
0,
0,
0,
0,
0,
0,
0,
0,
0,
0,
0,
0,
0,
0,
0,
0,
0,
0,
0,
0,
0,
0,
0,
0,
0,
0,
0,
0,
0,
0,
#ENDOFDATA   :