File: N132962/Quantification/15 keV/GMIIIA/GMIIIA K1053[2][4].msa
#FORMAT      : EMSA/MAS Spectral Data File
#VERSION     : 1.0
#TITLE       : GMIIIA K1053[2][all]
#DATE        : 22-SEP-2025
#TIME        : 21:12
#OWNER       : Unknown
#NPOINTS     : 4096
#NCOLUMNS    : 1
#XUNITS      : eV
#YUNITS      : counts
#DATATYPE    : Y
#XPERCHAN    : 9.99778
#OFFSET      : 1.69135
#BEAMKV      : 15
#SIGNALTYPE  : EDS
#ELEVANGLE   : 35
#AZIMANGLE   : 0
#LIVETIME    : 239.916
#REALTIME    : 261.041
#PROBECUR    : 1.21822
#TAUWIND     : 0
#TDEADLYR    : 0
#TACTLYR     : 0.045
#TALWIND     : 0.025
#CHOFFSET    : 0.0
#XLABEL      : Energy (eV)
#YLABEL      : Counts
#XPOSITION   : 4.4924
#YPOSITION   : 15.46414
#ZPOSITION   : 37.36299
#EDSDET      : SD
##SPECIMEN   : GMIIIA K1053[2][all]
##D2STDCMP   : K1053,(O:16.13),(F:0.39),(Si:9.35),(Cl:0.64),(Br:1.09),(I:1.37),(Pb:71.02)
##DET_HASH   : 12273538-fd48-a23f-0a19-f1e6fa85caef
##CALIB_HASH : 6abaa72c-aa41-8738-0be9-f592914732f3
##WORKING    : 15.0 mm
##DET_NAME   : EDAX All
##DET_MODE   : MediumLE
#SPECTRUM    :
22,
740,
14408,
8493,
28493,
10426,
8291,
8791,
9234,
9984,
10713,
13153,
34104,
30137,
8760,
8813,
17499,
132740,
22406,
13396,
5307,
5662,
6825,
5304,
4867,
5007,
4666,
4600,
5851,
4467,
4882,
4543,
4644,
4158,
4283,
3955,
3906,
3609,
3569,
3402,
3434,
3373,
3341,
3128,
3148,
3052,
3029,
2862,
2730,
2691,
2648,
2452,
2466,
2412,
2293,
2213,
2225,
2163,
2043,
2039,
1933,
1787,
1770,
1705,
1603,
1673,
1628,
1543,
1460,
1401,
1374,
1302,
1269,
1221,
1216,
2379,
1626,
985,
949,
890,
933,
758,
750,
697,
710,
677,
615,
641,
530,
585,
753,
485,
404,
387,
357,
309,
303,
235,
192,
193,
200,
158,
124,
103,
75,
40,
45,
12,
6,
6,
6,
7,
5,
1,
9,
2,
3,
1,
2,
2,
2,
1,
1,
0,
2,
1,
0,
2,
2,
1,
0,
1,
2,
1,
2,
3,
0,
3,
0,
0,
0,
0,
0,
2,
0,
0,
0,
0,
1,
0,
0,
1,
0,
0,
0,
0,
0,
0,
0,
0,
0,
0,
0,
0,
0,
0,
0,
1,
0,
0,
1,
0,
0,
0,
0,
0,
0,
0,
0,
0,
0,
0,
0,
1,
0,
0,
1,
0,
0,
0,
0,
0,
0,
0,
0,
0,
0,
0,
0,
0,
0,
0,
0,
0,
0,
0,
0,
0,
0,
0,
0,
0,
0,
0,
0,
0,
0,
0,
0,
0,
0,
0,
0,
0,
0,
0,
0,
0,
0,
0,
0,
0,
0,
0,
0,
0,
0,
0,
0,
0,
0,
0,
0,
0,
0,
0,
0,
0,
0,
0,
0,
0,
0,
0,
0,
0,
0,
0,
0,
0,
0,
0,
0,
0,
0,
0,
0,
0,
0,
0,
0,
0,
0,
0,
0,
0,
0,
0,
0,
0,
0,
0,
0,
0,
0,
0,
0,
0,
0,
0,
0,
0,
0,
0,
#ENDOFDATA   :