File: N132962/Quantification/15 keV/GMIIIA/GMIIIA K251[5][4].msa
#FORMAT      : EMSA/MAS Spectral Data File
#VERSION     : 1.0
#TITLE       : GMIIIA K251[5][all]
#DATE        : 22-SEP-2025
#TIME        : 15:01
#OWNER       : Unknown
#NPOINTS     : 4096
#NCOLUMNS    : 1
#XUNITS      : eV
#YUNITS      : counts
#DATATYPE    : Y
#XPERCHAN    : 9.99778
#OFFSET      : 1.69135
#BEAMKV      : 15
#SIGNALTYPE  : EDS
#ELEVANGLE   : 35
#AZIMANGLE   : 0
#LIVETIME    : 239.972
#REALTIME    : 259.1764
#PROBECUR    : 1.21732
#TAUWIND     : 0
#TDEADLYR    : 0
#TACTLYR     : 0.045
#TALWIND     : 0.025
#CHOFFSET    : 0.0
#XLABEL      : Energy (eV)
#YLABEL      : Counts
#XPOSITION   : 7.03313
#YPOSITION   : 2.46358
#ZPOSITION   : 37.36299
#EDSDET      : SD
##SPECIMEN   : GMIIIA K251[5][all]
##D2STDCMP   : K251,(O:23.02),(Al:1.32),(Si:14.02),(Ba:8.96),(Ta:4.09),(Pb:44.1),(Bi:4.48)
##DET_HASH   : 12273538-fd48-a23f-0a19-f1e6fa85caef
##CALIB_HASH : 6abaa72c-aa41-8738-0be9-f592914732f3
##WORKING    : 15.0 mm
##DET_NAME   : EDAX All
##DET_MODE   : MediumLE
#SPECTRUM    :
25,
573,
12298,
9182,
39795,
7872,
7386,
8133,
7920,
8653,
9633,
13094,
50588,
30174,
7325,
6830,
12210,
79755,
18711,
8628,
4729,
4807,
5687,
4829,
4261,
4295,
4168,
4170,
4057,
3986,
3803,
4151,
11604,
3639,
5004,
5518,
3445,
4376,
3052,
3130,
3132,
2861,
2691,
2603,
2549,
2476,
2423,
2377,
2283,
2150,
2110,
2130,
1990,
2066,
1873,
1843,
1699,
1802,
2321,
1679,
1501,
1480,
1432,
1420,
1327,
1257,
1422,
1394,
1196,
1253,
1075,
997,
971,
973,
952,
1632,
1194,
818,
808,
728,
745,
696,
599,
572,
523,
484,
509,
431,
443,
403,
509,
351,
328,
298,
255,
243,
205,
193,
170,
126,
150,
123,
85,
82,
69,
37,
20,
9,
2,
2,
4,
1,
3,
4,
0,
0,
3,
2,
1,
2,
0,
2,
0,
5,
1,
1,
0,
0,
3,
2,
0,
0,
2,
1,
1,
0,
1,
1,
1,
0,
0,
0,
0,
0,
0,
0,
0,
0,
1,
0,
0,
0,
0,
0,
0,
0,
1,
0,
0,
0,
0,
0,
0,
0,
0,
0,
1,
0,
0,
0,
0,
0,
0,
0,
0,
0,
0,
0,
0,
0,
0,
0,
0,
0,
0,
0,
0,
0,
0,
0,
0,
0,
0,
0,
0,
0,
0,
0,
0,
0,
0,
0,
0,
0,
0,
0,
0,
0,
0,
0,
0,
0,
0,
0,
0,
0,
0,
0,
0,
0,
0,
0,
0,
0,
0,
0,
0,
0,
0,
0,
0,
0,
0,
0,
0,
0,
0,
0,
0,
0,
0,
0,
0,
0,
0,
0,
0,
0,
0,
0,
0,
0,
0,
0,
0,
0,
0,
0,
0,
0,
0,
0,
0,
0,
0,
0,
0,
0,
0,
0,
0,
0,
0,
0,
0,
0,
0,
0,
0,
0,
0,
0,
0,
0,
0,
0,
0,
0,
0,
0,
0,
0,
0,
0,
#ENDOFDATA   :