File: N132962/Quantification/15 keV/GMIIIA/GMIIIA K249[6][4].msa
#FORMAT      : EMSA/MAS Spectral Data File
#VERSION     : 1.0
#TITLE       : GMIIIA K249[6][all]
#DATE        : 22-SEP-2025
#TIME        : 15:11
#OWNER       : Unknown
#NPOINTS     : 4096
#NCOLUMNS    : 1
#XUNITS      : eV
#YUNITS      : counts
#DATATYPE    : Y
#XPERCHAN    : 9.99778
#OFFSET      : 1.69135
#BEAMKV      : 15
#SIGNALTYPE  : EDS
#ELEVANGLE   : 35
#AZIMANGLE   : 0
#LIVETIME    : 239.995
#REALTIME    : 258.985
#PROBECUR    : 1.21732
#TAUWIND     : 0
#TDEADLYR    : 0
#TACTLYR     : 0.045
#TALWIND     : 0.025
#CHOFFSET    : 0.0
#XLABEL      : Energy (eV)
#YLABEL      : Counts
#XPOSITION   : 9.13231
#YPOSITION   : 2.24187
#ZPOSITION   : 37.36299
#EDSDET      : SD
##SPECIMEN   : GMIIIA K249[6][all]
##D2STDCMP   : K249,(O:24.49),(Al:2.65),(Si:14.02),(Ba:8.96),(Ta:8.19),(Pb:39.45),(Bi:2.24)
##DET_HASH   : 12273538-fd48-a23f-0a19-f1e6fa85caef
##CALIB_HASH : 6abaa72c-aa41-8738-0be9-f592914732f3
##WORKING    : 15.0 mm
##DET_NAME   : EDAX All
##DET_MODE   : MediumLE
#SPECTRUM    :
26,
509,
11620,
9186,
42599,
7232,
7162,
8038,
7733,
8757,
10222,
16085,
57950,
30866,
6958,
6484,
11023,
67804,
15166,
8166,
4591,
4697,
5381,
4628,
4175,
4228,
4051,
3944,
4029,
3736,
3652,
3999,
11519,
3421,
4748,
5381,
3440,
4322,
2878,
3058,
2941,
2737,
2640,
2480,
2452,
2436,
2272,
2183,
2161,
2145,
2063,
2027,
1898,
1916,
1784,
1732,
1670,
1722,
2920,
1759,
1436,
1480,
1292,
1343,
1221,
1296,
1425,
1497,
1154,
1247,
1047,
1029,
926,
840,
878,
1476,
1057,
801,
803,
682,
669,
663,
612,
545,
484,
461,
457,
467,
360,
427,
463,
346,
294,
299,
267,
235,
184,
166,
175,
111,
126,
101,
101,
72,
48,
44,
21,
10,
3,
7,
4,
1,
1,
5,
1,
1,
1,
1,
2,
0,
0,
0,
1,
3,
2,
0,
1,
1,
0,
0,
0,
0,
1,
0,
1,
2,
0,
1,
0,
0,
0,
0,
1,
0,
0,
0,
0,
0,
0,
0,
0,
0,
0,
0,
0,
0,
0,
0,
0,
0,
0,
1,
0,
0,
0,
0,
0,
1,
0,
0,
0,
0,
0,
0,
0,
0,
1,
0,
0,
0,
0,
0,
0,
0,
0,
0,
0,
0,
0,
0,
0,
0,
0,
0,
0,
0,
0,
0,
0,
0,
0,
0,
0,
0,
0,
0,
0,
0,
0,
0,
0,
0,
0,
0,
0,
0,
0,
0,
0,
0,
0,
0,
0,
0,
0,
0,
0,
0,
0,
0,
0,
0,
0,
0,
0,
0,
0,
0,
0,
0,
0,
0,
0,
0,
0,
0,
0,
0,
0,
0,
0,
0,
0,
0,
0,
0,
0,
0,
0,
0,
0,
0,
0,
0,
0,
0,
0,
0,
0,
0,
0,
0,
0,
0,
0,
0,
0,
0,
0,
0,
0,
0,
0,
0,
0,
0,
0,
0,
0,
0,
0,
0,
0,
0,
#ENDOFDATA   :