File: N132962/Quantification/15 keV/GMIIIA/GMIIIA K1236[7][4].msa
#FORMAT      : EMSA/MAS Spectral Data File
#VERSION     : 1.0
#TITLE       : GMIIIA K1236[7][all]
#DATE        : 22-SEP-2025
#TIME        : 23:12
#OWNER       : Unknown
#NPOINTS     : 4096
#NCOLUMNS    : 1
#XUNITS      : eV
#YUNITS      : counts
#DATATYPE    : Y
#XPERCHAN    : 9.99778
#OFFSET      : 1.69135
#BEAMKV      : 15
#SIGNALTYPE  : EDS
#ELEVANGLE   : 35
#AZIMANGLE   : 0
#LIVETIME    : 239.898
#REALTIME    : 258.862
#PROBECUR    : 1.21388
#TAUWIND     : 0
#TDEADLYR    : 0
#TACTLYR     : 0.045
#TALWIND     : 0.025
#CHOFFSET    : 0.0
#XLABEL      : Energy (eV)
#YLABEL      : Counts
#XPOSITION   : 7.15166
#YPOSITION   : 18.9369
#ZPOSITION   : 37.36299
#EDSDET      : SD
##SPECIMEN   : GMIIIA K1236[7][all]
##D2STDCMP   : K1236,(O:21.27),(Sc:0.65),(Ge:40.95),(Pb:37.13)
##DET_HASH   : 12273538-fd48-a23f-0a19-f1e6fa85caef
##CALIB_HASH : 6abaa72c-aa41-8738-0be9-f592914732f3
##WORKING    : 15.0 mm
##DET_NAME   : EDAX All
##DET_MODE   : MediumLE
#SPECTRUM    :
28,
483,
11180,
8888,
36134,
7619,
8097,
11639,
35847,
53230,
6392,
6638,
7011,
10988,
6377,
6471,
10477,
63708,
12667,
8282,
4631,
4949,
5556,
4644,
4370,
4466,
4298,
4074,
3893,
5342,
3842,
3568,
3920,
3458,
3437,
3257,
3125,
3097,
2924,
2870,
2829,
2683,
2601,
2482,
2491,
2488,
2452,
2303,
2158,
2106,
2062,
1978,
1852,
1860,
1731,
1742,
1726,
1601,
1553,
1542,
1416,
1379,
1426,
1303,
1261,
1169,
1197,
1145,
1109,
1205,
5356,
5187,
1023,
933,
908,
1479,
1071,
789,
1469,
1153,
667,
603,
537,
481,
480,
438,
454,
438,
384,
388,
438,
330,
287,
267,
246,
213,
180,
173,
158,
126,
125,
94,
87,
82,
59,
42,
19,
6,
2,
1,
4,
4,
1,
0,
0,
3,
2,
6,
3,
1,
2,
2,
1,
0,
0,
1,
0,
2,
1,
1,
1,
0,
1,
1,
1,
1,
0,
0,
1,
1,
0,
2,
0,
0,
1,
0,
1,
1,
0,
1,
0,
0,
0,
0,
0,
1,
1,
0,
0,
0,
0,
0,
0,
0,
0,
0,
0,
0,
0,
0,
0,
0,
0,
0,
0,
0,
0,
0,
0,
0,
0,
0,
0,
0,
0,
0,
0,
0,
0,
0,
0,
0,
0,
0,
0,
0,
0,
0,
0,
0,
0,
0,
0,
0,
0,
0,
0,
0,
0,
0,
0,
0,
0,
0,
0,
0,
0,
0,
0,
0,
0,
0,
0,
0,
0,
0,
0,
0,
0,
0,
0,
0,
0,
0,
0,
0,
0,
0,
0,
0,
0,
0,
0,
0,
0,
0,
0,
0,
0,
0,
0,
0,
0,
0,
0,
0,
0,
0,
0,
0,
0,
0,
0,
0,
0,
0,
0,
0,
0,
0,
0,
0,
0,
0,
0,
0,
0,
0,
0,
0,
0,
0,
0,
0,
0,
0,
0,
0,
0,
0,
0,
0,
0,
0,
#ENDOFDATA   :