File: N132962/Quantification/20 keV/MMM2/C std.msa
#FORMAT      : EMSA/MAS Spectral Data File
#VERSION     : 1.0
#TITLE       : C standard for 'N132962' detector
#NPOINTS     : 4096
#NCOLUMNS    : 1
#XUNITS      : eV
#YUNITS      : counts
#DATATYPE    : Y
#SIGNALTYPE  : EDS
#XLABEL      : Energy (eV)
#YLABEL      : Counts
#XPERCHAN -eV: 9.99778
#OFFSET   -eV: 1.69135
#CHOFFSET    : 0
#DATE        : 13-Mar-2025
#TIME        : 14:29:00
#OWNER       : Unknown
#ELEVANGLE   : 35
#BEAMKV   -kV: 20
#LIVETIME  -s: 1440
#REALTIME  -s: 1505.5
#PROBECUR -nA: 1.02609
##WORKING -mm: 15
##D2STDCMP   : C,(C:100.0000)
##SIMILAR    : 1.6
#SPECTRUM    :
139,
5726,
2671832,
3319,
13745,
7222,
9288,
11631,
13902,
14906,
15762,
15669,
15426,
14470,
12172,
11616,
10860,
10394,
9508,
8963,
8290,
7952,
7625,
7088,
6777,
6267,
6039,
5579,
5425,
5232,
4915,
4665,
4502,
4254,
3996,
3915,
3822,
3481,
3474,
3326,
3120,
3095,
2836,
2758,
2712,
2664,
2837,
2334,
2215,
2271,
2161,
2044,
1935,
1972,
1821,
1748,
1640,
1655,
1559,
1523,
1433,
1382,
1325,
1230,
1251,
1166,
1107,
1094,
1024,
972,
1018,
948,
854,
835,
805,
796,
763,
736,
724,
628,
665,
643,
622,
607,
549,
501,
530,
447,
461,
429,
407,
389,
378,
351,
363,
315,
293,
259,
267,
240,
246,
230,
176,
226,
176,
152,
164,
141,
145,
124,
110,
119,
118,
120,
92,
104,
95,
79,
60,
77,
73,
68,
38,
41,
42,
44,
37,
35,
27,
22,
33,
16,
25,
13,
17,
12,
11,
4,
8,
8,
3,
4,
1,
0,
0,
0,
0,
0,
0,
0,
0,
0,
0,
0,
1,
0,
0,
0,
0,
0,
0,
0,
0,
0,
0,
0,
0,
0,
1,
0,
0,
0,
0,
0,
0,
0,
0,
0,
0,
0,
0,
0,
0,
0,
0,
0,
0,
0,
0,
0,
0,
0,
0,
0,
0,
0,
0,
0,
0,
0,
0,
0,
0,
0,
0,
0,
0,
0,
0,
0,
0,
0,
0,
0,
0,
0,
0,
0,
0,
0,
0,
0,
0,
0,
0,
0,
0,
0,
0,
0,
0,
0,
0,
0,
0,
0,
0,
0,
0,
0,
0,
0,
0,
0,
0,
0,
0,
0,
0,
0,
0,
0,
0,
0,
0,
0,
0,
0,
0,
0,
0,
0,
0,
0,
0,
0,
0,
0,
0,
0,
0,
0,
0,
0,
0,
0,
0,
0,
0,
0,
0,
0,
0,
0,
0,
0,
0,
0,
0,
0,
0,
0,
0,
0,
#ENDOFDATA   :