File: N132962/Quantification/20 keV/MMM2/FeS std.msa
#FORMAT      : EMSA/MAS Spectral Data File
#VERSION     : 1.0
#TITLE       : FeS standard for 'N132962' detector
#NPOINTS     : 4096
#NCOLUMNS    : 1
#XUNITS      : eV
#YUNITS      : counts
#DATATYPE    : Y
#SIGNALTYPE  : EDS
#XLABEL      : Energy (eV)
#YLABEL      : Counts
#XPERCHAN -eV: 9.99778
#OFFSET   -eV: 1.69135
#CHOFFSET    : 0
#DATE        : 13-Mar-2025
#TIME        : 12:57:00
#OWNER       : Unknown
#ELEVANGLE   : 35
#BEAMKV   -kV: 20
#LIVETIME  -s: 1918.82
#REALTIME  -s: 2096.41
#PROBECUR -nA: 1.02627
##WORKING -mm: 15
##D2STDCMP   : FeS,(S:36.4712),(Fe:63.5288)
##SIMILAR    : 1.5
#SPECTRUM    :
166,
5915,
86343,
21442,
134083,
504302,
28858,
28851,
34377,
39351,
44178,
46951,
49983,
51549,
48148,
51367,
857242,
666153,
113696,
24867,
25256,
26751,
26147,
25002,
24217,
24383,
24263,
23546,
23035,
22338,
22388,
21484,
21706,
29213,
21127,
19554,
18897,
18071,
18137,
17704,
16826,
16360,
15934,
15963,
17207,
182707,
551313,
19801,
13987,
15535,
74624,
43719,
10611,
11006,
10287,
9811,
9701,
9474,
9066,
8963,
8466,
8509,
10048,
8515,
7817,
7464,
7383,
7431,
7025,
6521,
6476,
6087,
6100,
5781,
5621,
5381,
5253,
5139,
4909,
4816,
4603,
4422,
4324,
4184,
3834,
3694,
3672,
3595,
3376,
3256,
3127,
3254,
3018,
2715,
2551,
2492,
2446,
2388,
2155,
2056,
2017,
1859,
1784,
1750,
1598,
1541,
1395,
1380,
1291,
1265,
1167,
1065,
1037,
999,
946,
796,
810,
753,
672,
624,
620,
612,
548,
481,
427,
444,
397,
377,
320,
286,
280,
235,
215,
202,
171,
138,
121,
92,
104,
49,
50,
41,
30,
9,
11,
8,
9,
4,
4,
4,
2,
9,
5,
4,
4,
5,
2,
3,
4,
2,
1,
2,
1,
0,
3,
2,
3,
0,
0,
0,
3,
3,
0,
0,
1,
0,
2,
2,
2,
2,
1,
2,
2,
2,
0,
1,
2,
1,
1,
0,
1,
0,
0,
1,
0,
0,
1,
0,
0,
0,
0,
0,
0,
0,
1,
0,
0,
0,
0,
0,
0,
0,
0,
0,
0,
0,
0,
0,
0,
0,
1,
0,
0,
0,
0,
0,
0,
0,
0,
0,
0,
0,
0,
0,
0,
0,
0,
0,
0,
0,
0,
0,
0,
0,
0,
0,
0,
0,
0,
0,
0,
0,
0,
0,
0,
0,
0,
0,
0,
0,
0,
0,
0,
0,
0,
0,
0,
0,
0,
0,
0,
0,
0,
0,
0,
0,
0,
0,
0,
0,
0,
0,
0,
0,
0,
0,
0,
0,
0,
0,
0,
0,
0,
0,
#ENDOFDATA   :