File: N132962/Quantification/20 keV/MMM2/SPI MM2 Willemite[0][4].msa
#FORMAT      : EMSA/MAS Spectral Data File
#VERSION     : 1.0
#TITLE       : SPI MM2 Willemite[0][all]
#DATE        : 13-MAR-2025
#TIME        : 14:02
#OWNER       : Unknown
#NPOINTS     : 4096
#NCOLUMNS    : 1
#XUNITS      : eV
#YUNITS      : counts
#DATATYPE    : Y
#XPERCHAN    : 9.99778
#OFFSET      : 1.69135
#BEAMKV      : 20
#SIGNALTYPE  : EDS
#ELEVANGLE   : 35
#AZIMANGLE   : 0
#LIVETIME    : 239.763
#REALTIME    : 257.389
#PROBECUR    : 1.0264
#TAUWIND     : 0
#TDEADLYR    : 0
#TACTLYR     : 0.045
#TALWIND     : 0.025
#CHOFFSET    : 0.0
#XLABEL      : Energy (eV)
#YLABEL      : Counts
#XPOSITION   : 2.74825
#YPOSITION   : 6.23714
#ZPOSITION   : 31.03511
#EDSDET      : SD
##SPECIMEN   : SPI MM2 Willemite[0][all]
##DET_HASH   : 12273538-fd48-a23f-0a19-f1e6fa85caef
##CALIB_HASH : 6abaa72c-aa41-8738-0be9-f592914732f3
##WORKING    : 15.0 mm
##DET_NAME   : EDAX All
##DET_MODE   : MediumLE
#SPECTRUM    :
39,
264,
11389,
5991,
42399,
4714,
11530,
140929,
5889,
3624,
3275,
4347,
24663,
13089,
3566,
3610,
3763,
3730,
3783,
3749,
3745,
3593,
3388,
3462,
3350,
3335,
3169,
3071,
3017,
2962,
2832,
2714,
2753,
2718,
2482,
2471,
2387,
2348,
2222,
2129,
2050,
2270,
10441,
2615,
1861,
1848,
2773,
1987,
1604,
1764,
1546,
1476,
1508,
1445,
1374,
1319,
1339,
1221,
1146,
1245,
1411,
20078,
33648,
1772,
1094,
1044,
1052,
1187,
5736,
3316,
817,
742,
759,
695,
722,
686,
670,
647,
591,
584,
536,
558,
541,
502,
459,
415,
440,
413,
420,
367,
361,
342,
357,
345,
309,
324,
304,
262,
278,
280,
255,
246,
229,
214,
195,
191,
176,
162,
158,
154,
160,
145,
117,
128,
104,
99,
104,
93,
76,
76,
74,
61,
81,
83,
71,
66,
40,
45,
46,
39,
36,
34,
34,
20,
23,
12,
10,
11,
13,
11,
4,
3,
5,
1,
0,
3,
2,
0,
1,
1,
2,
1,
0,
2,
0,
1,
0,
1,
0,
0,
1,
0,
0,
0,
0,
0,
0,
1,
0,
2,
0,
0,
0,
0,
0,
0,
1,
0,
0,
0,
1,
0,
0,
0,
0,
0,
0,
0,
0,
1,
0,
0,
0,
0,
0,
0,
0,
1,
0,
0,
1,
0,
0,
0,
0,
0,
0,
0,
0,
0,
0,
0,
0,
0,
0,
0,
0,
0,
0,
0,
0,
0,
0,
0,
0,
0,
0,
0,
0,
0,
0,
0,
0,
0,
0,
0,
0,
0,
0,
0,
0,
0,
0,
0,
0,
0,
0,
0,
0,
0,
0,
0,
0,
0,
0,
0,
0,
0,
0,
0,
0,
0,
0,
0,
0,
0,
0,
0,
0,
0,
0,
0,
0,
0,
0,
0,
0,
0,
0,
0,
0,
0,
0,
0,
0,
0,
0,
0,
0,
0,
0,
0,
0,
0,
#ENDOFDATA   :