File: N132962/Quantification/20 keV/MMM2/SPI MM2 SPI Monazite[2][4].msa
#FORMAT      : EMSA/MAS Spectral Data File
#VERSION     : 1.0
#TITLE       : SPI MM2 SPI Monazite[2][all]
#DATE        : 13-MAR-2025
#TIME        : 10:06
#OWNER       : Unknown
#NPOINTS     : 4096
#NCOLUMNS    : 1
#XUNITS      : eV
#YUNITS      : counts
#DATATYPE    : Y
#XPERCHAN    : 9.99778
#OFFSET      : 1.69135
#BEAMKV      : 20
#SIGNALTYPE  : EDS
#ELEVANGLE   : 35
#AZIMANGLE   : 0
#LIVETIME    : 239.956
#REALTIME    : 258.5444
#PROBECUR    : 1.02627
#TAUWIND     : 0
#TDEADLYR    : 0
#TACTLYR     : 0.045
#TALWIND     : 0.025
#CHOFFSET    : 0.0
#XLABEL      : Energy (eV)
#YLABEL      : Counts
#XPOSITION   : 2.47962
#YPOSITION   : -2.76458
#ZPOSITION   : 31.03509
#EDSDET      : SD
##SPECIMEN   : SPI MM2 SPI Monazite[2][all]
##D2STDCMP   : SPI Monazite,(O:26.45),(Si:0.83),(P:11.85),(Ca:0.65),(Y:1.59),(La:7.84),(Ce:19.96),(Pr:2.47),(Nd:9.68),(Sm:3.7),(Eu:0.38),(Gd:2.89),(Tb:0.35),(Dy:1.21),(Pb:0.25),(Th:9.7),(U:0.16),5.0
##DET_HASH   : 12273538-fd48-a23f-0a19-f1e6fa85caef
##CALIB_HASH : 6abaa72c-aa41-8738-0be9-f592914732f3
##WORKING    : 15.0 mm
##DET_NAME   : EDAX All
##DET_MODE   : MediumLE
#SPECTRUM    :
23,
386,
17414,
7814,
41259,
9628,
10820,
9242,
7268,
6547,
5884,
5657,
7614,
7330,
36580,
12958,
5236,
5919,
5235,
5302,
5244,
11575,
11031,
7945,
6026,
4824,
5952,
4927,
4525,
4855,
4531,
4636,
4249,
13304,
13133,
17029,
11805,
15538,
15450,
6225,
10886,
9476,
4346,
6973,
5432,
4364,
3477,
4095,
3381,
2778,
2569,
2781,
2576,
2387,
2217,
2232,
1918,
1991,
1857,
1919,
1813,
1694,
1801,
1666,
1705,
1500,
1502,
1497,
1481,
1398,
1460,
1338,
1272,
1308,
1268,
1224,
1159,
1156,
1040,
1053,
975,
952,
945,
923,
921,
813,
822,
832,
799,
678,
689,
674,
801,
809,
602,
616,
592,
559,
513,
466,
473,
428,
412,
391,
378,
388,
387,
399,
348,
311,
269,
290,
271,
236,
237,
218,
175,
176,
177,
167,
123,
172,
135,
136,
128,
111,
107,
96,
70,
85,
76,
66,
49,
51,
42,
32,
27,
28,
19,
19,
9,
10,
7,
4,
1,
1,
1,
2,
0,
2,
1,
1,
2,
2,
0,
1,
1,
1,
0,
2,
2,
3,
0,
0,
1,
2,
0,
1,
0,
0,
0,
0,
1,
0,
0,
0,
0,
1,
0,
0,
1,
0,
0,
0,
0,
0,
0,
1,
0,
0,
0,
0,
0,
0,
0,
1,
0,
0,
0,
0,
0,
0,
0,
0,
0,
0,
0,
0,
0,
0,
0,
0,
0,
0,
1,
0,
0,
0,
0,
0,
0,
0,
0,
0,
0,
0,
0,
0,
0,
0,
0,
0,
0,
0,
0,
0,
0,
0,
0,
0,
0,
0,
0,
1,
0,
0,
0,
0,
0,
0,
0,
0,
0,
0,
0,
0,
0,
0,
0,
0,
0,
0,
0,
0,
0,
0,
0,
0,
0,
0,
0,
0,
0,
0,
0,
0,
0,
0,
0,
0,
0,
0,
0,
0,
0,
0,
0,
0,
0,
0,
0,
0,
0,
0,
#ENDOFDATA   :