File: N132962/Quantification/20 keV/MMM2/SPI MM2 Sphene[1][4].msa
#FORMAT      : EMSA/MAS Spectral Data File
#VERSION     : 1.0
#TITLE       : SPI MM2 Sphene[1][all]
#DATE        : 13-MAR-2025
#TIME        : 12:59
#OWNER       : Unknown
#NPOINTS     : 4096
#NCOLUMNS    : 1
#XUNITS      : eV
#YUNITS      : counts
#DATATYPE    : Y
#XPERCHAN    : 9.99778
#OFFSET      : 1.69135
#BEAMKV      : 20
#SIGNALTYPE  : EDS
#ELEVANGLE   : 35
#AZIMANGLE   : 0
#LIVETIME    : 239.807
#REALTIME    : 254.768
#PROBECUR    : 1.02627
#TAUWIND     : 0
#TDEADLYR    : 0
#TACTLYR     : 0.045
#TALWIND     : 0.025
#CHOFFSET    : 0.0
#XLABEL      : Energy (eV)
#YLABEL      : Counts
#XPOSITION   : 6.01776
#YPOSITION   : 3.75314
#ZPOSITION   : 31.03511
#EDSDET      : SD
##SPECIMEN   : SPI MM2 Sphene[1][all]
##DET_HASH   : 12273538-fd48-a23f-0a19-f1e6fa85caef
##CALIB_HASH : 6abaa72c-aa41-8738-0be9-f592914732f3
##WORKING    : 15.0 mm
##DET_NAME   : EDAX All
##DET_MODE   : MediumLE
#SPECTRUM    :
32,
175,
13355,
7591,
21559,
2410,
2359,
2838,
3423,
4026,
4857,
6998,
38694,
19501,
4685,
3586,
3823,
3345,
3249,
3241,
3511,
3063,
2865,
2874,
2710,
3252,
55551,
19378,
4643,
10035,
2052,
2603,
62323,
8316,
1989,
9778,
2788,
1462,
1434,
1560,
1331,
1305,
1361,
1205,
1184,
1422,
1811,
1096,
1159,
1034,
1054,
940,
1029,
1024,
905,
833,
835,
773,
788,
833,
761,
733,
717,
670,
643,
615,
610,
597,
633,
544,
527,
512,
488,
452,
466,
454,
466,
426,
390,
392,
377,
346,
355,
364,
311,
326,
274,
296,
280,
264,
253,
257,
256,
212,
198,
192,
208,
166,
194,
174,
152,
127,
139,
121,
108,
111,
126,
95,
104,
96,
70,
70,
85,
75,
53,
65,
61,
57,
58,
43,
43,
30,
42,
29,
37,
27,
27,
20,
29,
22,
15,
15,
18,
13,
1,
9,
11,
3,
2,
3,
6,
1,
1,
1,
2,
0,
0,
0,
0,
1,
0,
0,
0,
0,
0,
0,
0,
0,
0,
0,
0,
0,
0,
0,
0,
0,
0,
0,
0,
0,
0,
0,
0,
0,
0,
0,
0,
0,
0,
0,
0,
0,
0,
0,
0,
0,
0,
0,
0,
0,
0,
0,
0,
0,
0,
0,
0,
0,
0,
0,
0,
0,
0,
0,
0,
0,
0,
0,
0,
0,
0,
0,
0,
0,
1,
0,
0,
0,
0,
0,
0,
0,
0,
0,
0,
0,
0,
0,
0,
0,
0,
0,
0,
0,
0,
0,
0,
0,
0,
0,
0,
0,
0,
0,
0,
0,
0,
0,
0,
0,
0,
0,
0,
0,
0,
0,
0,
0,
0,
0,
0,
0,
0,
0,
0,
0,
0,
0,
0,
0,
0,
0,
0,
0,
0,
0,
0,
0,
0,
0,
0,
0,
0,
0,
0,
0,
0,
0,
0,
0,
0,
0,
0,
0,
#ENDOFDATA   :