File: N132962/Quantification/20 keV/MMM2/SPI MM2 Pyrite[6][4].msa
#FORMAT      : EMSA/MAS Spectral Data File
#VERSION     : 1.0
#TITLE       : SPI MM2 Pyrite[6][all]
#DATE        : 13-MAR-2025
#TIME        : 12:56
#OWNER       : Unknown
#NPOINTS     : 4096
#NCOLUMNS    : 1
#XUNITS      : eV
#YUNITS      : counts
#DATATYPE    : Y
#XPERCHAN    : 9.99778
#OFFSET      : 1.69135
#BEAMKV      : 20
#SIGNALTYPE  : EDS
#ELEVANGLE   : 35
#AZIMANGLE   : 0
#LIVETIME    : 239.843
#REALTIME    : 262.063
#PROBECUR    : 1.02627
#TAUWIND     : 0
#TDEADLYR    : 0
#TACTLYR     : 0.045
#TALWIND     : 0.025
#CHOFFSET    : 0.0
#XLABEL      : Energy (eV)
#YLABEL      : Counts
#XPOSITION   : 7.88002
#YPOSITION   : 1.93359
#ZPOSITION   : 31.03511
#EDSDET      : SD
##SPECIMEN   : SPI MM2 Pyrite[6][all]
##DET_HASH   : 12273538-fd48-a23f-0a19-f1e6fa85caef
##CALIB_HASH : 6abaa72c-aa41-8738-0be9-f592914732f3
##WORKING    : 15.0 mm
##DET_NAME   : EDAX All
##DET_MODE   : MediumLE
#SPECTRUM    :
19,
759,
10748,
2627,
16601,
63380,
3609,
3618,
4303,
4775,
5617,
5859,
6220,
6501,
6108,
6539,
107608,
83809,
14348,
3086,
3130,
3363,
3314,
3131,
3099,
3129,
2992,
2913,
2912,
2801,
2835,
2612,
2783,
3737,
2674,
2389,
2382,
2193,
2271,
2195,
2100,
2035,
1942,
2014,
2183,
22855,
69320,
2437,
1754,
1896,
9259,
5477,
1329,
1365,
1299,
1167,
1193,
1165,
1160,
1136,
1054,
1085,
1295,
1020,
960,
950,
889,
915,
882,
789,
789,
785,
754,
716,
739,
680,
658,
635,
645,
557,
539,
571,
559,
556,
497,
425,
439,
461,
416,
400,
398,
407,
384,
342,
324,
320,
301,
304,
282,
259,
261,
244,
227,
219,
192,
214,
164,
157,
163,
146,
161,
133,
126,
129,
112,
123,
102,
89,
87,
85,
80,
67,
70,
61,
49,
66,
61,
46,
46,
38,
38,
31,
29,
30,
23,
21,
13,
5,
17,
6,
5,
8,
3,
2,
1,
2,
1,
0,
1,
0,
0,
0,
0,
1,
0,
1,
0,
1,
2,
0,
0,
2,
0,
0,
0,
0,
0,
0,
0,
0,
1,
0,
0,
0,
0,
0,
0,
0,
0,
1,
0,
0,
0,
0,
0,
0,
1,
0,
0,
0,
0,
0,
0,
0,
0,
0,
0,
0,
0,
0,
0,
0,
0,
0,
0,
0,
0,
0,
0,
0,
0,
0,
0,
0,
0,
0,
0,
0,
0,
0,
0,
0,
0,
0,
0,
0,
0,
0,
0,
0,
0,
0,
0,
0,
0,
0,
0,
0,
0,
0,
0,
0,
0,
0,
0,
0,
0,
0,
0,
0,
0,
0,
0,
0,
0,
0,
0,
0,
0,
0,
0,
0,
0,
0,
0,
0,
0,
0,
0,
0,
0,
0,
0,
0,
0,
0,
0,
0,
0,
0,
0,
0,
0,
0,
0,
0,
0,
0,
0,
0,
0,
0,
0,
0,
#ENDOFDATA   :