File: N132962/Quantification/20 keV/MMM2/SPI MM2 Willemite[6][4].msa
#FORMAT      : EMSA/MAS Spectral Data File
#VERSION     : 1.0
#TITLE       : SPI MM2 Willemite[6][all]
#DATE        : 13-MAR-2025
#TIME        : 14:09
#OWNER       : Unknown
#NPOINTS     : 4096
#NCOLUMNS    : 1
#XUNITS      : eV
#YUNITS      : counts
#DATATYPE    : Y
#XPERCHAN    : 9.99778
#OFFSET      : 1.69135
#BEAMKV      : 20
#SIGNALTYPE  : EDS
#ELEVANGLE   : 35
#AZIMANGLE   : 0
#LIVETIME    : 239.777
#REALTIME    : 257.521
#PROBECUR    : 1.02609
#TAUWIND     : 0
#TDEADLYR    : 0
#TACTLYR     : 0.045
#TALWIND     : 0.025
#CHOFFSET    : 0.0
#XLABEL      : Energy (eV)
#YLABEL      : Counts
#XPOSITION   : 2.68645
#YPOSITION   : 6.20539
#ZPOSITION   : 31.03511
#EDSDET      : SD
##SPECIMEN   : SPI MM2 Willemite[6][all]
##DET_HASH   : 12273538-fd48-a23f-0a19-f1e6fa85caef
##CALIB_HASH : 6abaa72c-aa41-8738-0be9-f592914732f3
##WORKING    : 15.0 mm
##DET_NAME   : EDAX All
##DET_MODE   : MediumLE
#SPECTRUM    :
32,
249,
11299,
6261,
42431,
4727,
11678,
143727,
6085,
3701,
3338,
4355,
24543,
13273,
3507,
3732,
3790,
3786,
3669,
3850,
3854,
3604,
3492,
3494,
3413,
3364,
3236,
3144,
3020,
2906,
2841,
2754,
2691,
2571,
2540,
2477,
2370,
2355,
2238,
2199,
2164,
2223,
9854,
2591,
1830,
1914,
2772,
2025,
1656,
1675,
1612,
1576,
1500,
1492,
1444,
1295,
1318,
1244,
1210,
1223,
1381,
20324,
34073,
1817,
1095,
1061,
1058,
1225,
5755,
3404,
806,
730,
721,
725,
739,
661,
633,
590,
581,
568,
561,
581,
567,
489,
496,
435,
420,
437,
386,
398,
353,
366,
333,
341,
336,
292,
301,
281,
271,
270,
251,
235,
217,
210,
205,
183,
173,
154,
170,
144,
158,
131,
125,
117,
116,
108,
99,
92,
98,
103,
81,
65,
80,
63,
58,
58,
58,
49,
44,
46,
39,
33,
33,
18,
29,
28,
14,
21,
21,
6,
12,
2,
5,
2,
0,
2,
1,
1,
0,
0,
1,
0,
1,
0,
1,
0,
1,
0,
0,
0,
1,
0,
1,
0,
0,
0,
0,
1,
0,
0,
0,
0,
0,
1,
0,
0,
0,
0,
0,
2,
0,
1,
1,
0,
0,
0,
0,
0,
0,
0,
1,
0,
0,
0,
0,
0,
0,
0,
0,
0,
0,
0,
0,
0,
0,
0,
0,
0,
0,
0,
0,
0,
0,
0,
0,
0,
0,
0,
0,
0,
0,
0,
0,
0,
0,
1,
0,
0,
0,
0,
0,
0,
0,
0,
0,
0,
0,
0,
0,
0,
0,
0,
0,
0,
0,
0,
0,
0,
0,
0,
0,
0,
0,
0,
0,
0,
0,
0,
0,
0,
0,
0,
0,
0,
0,
0,
0,
0,
0,
0,
0,
0,
0,
0,
0,
0,
0,
0,
0,
0,
0,
0,
0,
0,
0,
0,
0,
0,
0,
0,
0,
0,
0,
0,
#ENDOFDATA   :