File: N132962/Quantification/20 keV/MMM2/SPI MM2 SPI Phlogpite[2][4].msa
#FORMAT      : EMSA/MAS Spectral Data File
#VERSION     : 1.0
#TITLE       : SPI MM2 SPI Phlogpite[2][all]
#DATE        : 13-MAR-2025
#TIME        : 10:43
#OWNER       : Unknown
#NPOINTS     : 4096
#NCOLUMNS    : 1
#XUNITS      : eV
#YUNITS      : counts
#DATATYPE    : Y
#XPERCHAN    : 9.99778
#OFFSET      : 1.69135
#BEAMKV      : 20
#SIGNALTYPE  : EDS
#ELEVANGLE   : 35
#AZIMANGLE   : 0
#LIVETIME    : 239.905
#REALTIME    : 254.765
#PROBECUR    : 1.02606
#TAUWIND     : 0
#TDEADLYR    : 0
#TACTLYR     : 0.045
#TALWIND     : 0.025
#CHOFFSET    : 0.0
#XLABEL      : Energy (eV)
#YLABEL      : Counts
#XPOSITION   : 1.48318
#YPOSITION   : -0.41863
#ZPOSITION   : 31.0351
#EDSDET      : SD
##SPECIMEN   : SPI MM2 SPI Phlogpite[2][all]
##D2STDCMP   : SPI Phlogpite,(H:0.48),(O:46.01),(Mg:17.47),(Al:6.47),(Si:20.19),(K:9.37)
##DET_HASH   : 12273538-fd48-a23f-0a19-f1e6fa85caef
##CALIB_HASH : 6abaa72c-aa41-8738-0be9-f592914732f3
##WORKING    : 15.0 mm
##DET_NAME   : EDAX All
##DET_MODE   : MediumLE
#SPECTRUM    :
19,
209,
10347,
5405,
51276,
7183,
2724,
3992,
4677,
108929,
6296,
19709,
40180,
19854,
2563,
2487,
2805,
2479,
2483,
2407,
2366,
2372,
2283,
6726,
24612,
2913,
4465,
1872,
1775,
1788,
1616,
1581,
2698,
1525,
1581,
1616,
1376,
1427,
1255,
1245,
1183,
1142,
1356,
1054,
1060,
3112,
7827,
993,
895,
908,
1641,
1307,
780,
780,
761,
732,
661,
638,
627,
649,
577,
605,
583,
541,
516,
515,
446,
460,
474,
441,
445,
387,
428,
372,
402,
360,
312,
322,
311,
289,
280,
285,
253,
294,
224,
228,
227,
214,
215,
194,
186,
182,
167,
133,
155,
132,
143,
142,
133,
118,
126,
127,
106,
90,
95,
94,
84,
80,
73,
74,
63,
66,
54,
55,
53,
50,
47,
46,
40,
34,
42,
36,
25,
29,
16,
23,
16,
19,
24,
14,
10,
7,
17,
8,
7,
8,
5,
5,
4,
3,
1,
0,
0,
0,
0,
0,
0,
0,
1,
0,
0,
1,
0,
0,
0,
0,
0,
0,
0,
0,
0,
0,
0,
0,
0,
0,
0,
1,
0,
0,
0,
0,
0,
0,
0,
0,
0,
0,
0,
0,
0,
1,
0,
0,
0,
0,
0,
0,
0,
0,
0,
0,
0,
0,
0,
0,
0,
0,
0,
0,
0,
0,
0,
0,
0,
0,
0,
0,
0,
0,
0,
0,
0,
0,
0,
0,
0,
0,
0,
0,
0,
0,
0,
0,
0,
0,
0,
0,
0,
0,
0,
0,
0,
0,
0,
0,
0,
0,
0,
0,
0,
0,
0,
0,
0,
0,
0,
0,
0,
0,
0,
0,
0,
0,
0,
0,
0,
0,
0,
0,
0,
0,
0,
0,
0,
0,
0,
0,
0,
0,
0,
0,
0,
0,
0,
0,
0,
0,
0,
0,
0,
0,
0,
0,
0,
0,
0,
0,
0,
0,
0,
0,
0,
0,
#ENDOFDATA   :