File: N132962/Quantification/20 keV/MMM2/SPI MM2 SPI Obsidian[0][4].msa
#FORMAT      : EMSA/MAS Spectral Data File
#VERSION     : 1.0
#TITLE       : SPI MM2 SPI Obsidian[0][all]
#DATE        : 13-MAR-2025
#TIME        : 09:54
#OWNER       : Unknown
#NPOINTS     : 4096
#NCOLUMNS    : 1
#XUNITS      : eV
#YUNITS      : counts
#DATATYPE    : Y
#XPERCHAN    : 9.99778
#OFFSET      : 1.69135
#BEAMKV      : 20
#SIGNALTYPE  : EDS
#ELEVANGLE   : 35
#AZIMANGLE   : 0
#LIVETIME    : 239.8575
#REALTIME    : 256.3
#PROBECUR    : 1.02627
#TAUWIND     : 0
#TDEADLYR    : 0
#TACTLYR     : 0.045
#TALWIND     : 0.025
#CHOFFSET    : 0.0
#XLABEL      : Energy (eV)
#YLABEL      : Counts
#XPOSITION   : 0.0269
#YPOSITION   : -2.97551
#ZPOSITION   : 31.03509
#EDSDET      : SD
##SPECIMEN   : SPI MM2 SPI Obsidian[0][all]
##D2STDCMP   : SPI Obsidian,(O:49.01),(Na:2.77),(Mg:0.06),(Al:6.9),(Si:35.66),(K:3.58),(Ca:0.63),(Ti:0.06),(Mn:0.04),(Fe:0.59),5.0
##DET_HASH   : 12273538-fd48-a23f-0a19-f1e6fa85caef
##CALIB_HASH : 6abaa72c-aa41-8738-0be9-f592914732f3
##WORKING    : 15.0 mm
##DET_NAME   : EDAX All
##DET_MODE   : MediumLE
#SPECTRUM    :
23,
175,
8811,
5652,
57685,
2673,
2616,
6487,
4247,
4591,
8044,
25284,
89040,
40835,
2237,
2266,
2945,
2184,
2254,
2293,
2174,
2184,
2035,
4241,
12154,
2841,
4406,
2184,
1757,
1890,
1605,
1525,
1783,
1504,
1454,
1324,
1278,
1257,
1221,
1137,
1166,
1102,
1123,
1112,
942,
1199,
1885,
867,
906,
841,
867,
827,
698,
751,
683,
646,
640,
631,
655,
600,
526,
596,
516,
503,
495,
426,
470,
439,
433,
429,
384,
375,
402,
335,
341,
332,
315,
299,
268,
275,
270,
246,
268,
212,
244,
205,
215,
230,
201,
178,
174,
168,
140,
153,
140,
138,
154,
130,
102,
112,
118,
114,
97,
85,
75,
86,
76,
77,
81,
80,
63,
72,
54,
51,
46,
39,
39,
47,
30,
41,
28,
25,
20,
23,
14,
22,
17,
18,
12,
11,
15,
5,
6,
6,
6,
7,
4,
4,
3,
0,
1,
1,
0,
0,
0,
0,
0,
0,
0,
0,
0,
0,
0,
0,
0,
0,
0,
0,
0,
0,
0,
0,
0,
0,
0,
0,
0,
0,
0,
0,
0,
0,
0,
0,
0,
0,
0,
0,
0,
0,
0,
0,
0,
0,
0,
0,
0,
0,
0,
0,
0,
0,
0,
0,
0,
0,
0,
0,
0,
0,
0,
0,
0,
0,
0,
0,
0,
0,
0,
0,
0,
0,
0,
0,
0,
0,
0,
0,
0,
0,
0,
0,
0,
0,
0,
0,
0,
0,
0,
0,
0,
0,
0,
0,
0,
0,
0,
0,
0,
0,
0,
0,
0,
0,
0,
0,
0,
0,
0,
0,
0,
0,
0,
0,
0,
0,
0,
0,
0,
0,
0,
0,
0,
0,
0,
0,
0,
0,
0,
0,
0,
0,
0,
0,
0,
0,
0,
0,
0,
0,
0,
0,
0,
0,
0,
0,
0,
0,
0,
0,
0,
0,
0,
0,
#ENDOFDATA   :