File: N132962/Quantification/20 keV/MMM2/SPI MM2 Sphene[7][4].msa
#FORMAT      : EMSA/MAS Spectral Data File
#VERSION     : 1.0
#TITLE       : SPI MM2 Sphene[7][all]
#DATE        : 13-MAR-2025
#TIME        : 13:06
#OWNER       : Unknown
#NPOINTS     : 4096
#NCOLUMNS    : 1
#XUNITS      : eV
#YUNITS      : counts
#DATATYPE    : Y
#XPERCHAN    : 9.99778
#OFFSET      : 1.69135
#BEAMKV      : 20
#SIGNALTYPE  : EDS
#ELEVANGLE   : 35
#AZIMANGLE   : 0
#LIVETIME    : 239.8535
#REALTIME    : 254.826
#PROBECUR    : 1.0263
#TAUWIND     : 0
#TDEADLYR    : 0
#TACTLYR     : 0.045
#TALWIND     : 0.025
#CHOFFSET    : 0.0
#XLABEL      : Energy (eV)
#YLABEL      : Counts
#XPOSITION   : 6.10352
#YPOSITION   : 3.74686
#ZPOSITION   : 31.03511
#EDSDET      : SD
##SPECIMEN   : SPI MM2 Sphene[7][all]
##DET_HASH   : 12273538-fd48-a23f-0a19-f1e6fa85caef
##CALIB_HASH : 6abaa72c-aa41-8738-0be9-f592914732f3
##WORKING    : 15.0 mm
##DET_NAME   : EDAX All
##DET_MODE   : MediumLE
#SPECTRUM    :
31,
184,
13468,
7682,
21478,
2399,
2470,
2871,
3440,
4102,
4837,
6817,
38330,
19651,
4563,
3651,
3683,
3323,
3337,
3425,
3608,
3127,
2940,
2891,
2762,
3248,
55769,
19788,
4640,
10135,
2029,
2707,
61700,
8143,
1930,
9641,
2802,
1456,
1453,
1557,
1335,
1301,
1356,
1283,
1238,
1373,
1894,
1117,
1061,
1006,
1102,
955,
891,
999,
903,
878,
875,
796,
792,
837,
756,
709,
655,
661,
713,
674,
616,
561,
592,
561,
543,
539,
507,
476,
456,
464,
436,
414,
397,
395,
386,
398,
351,
331,
302,
311,
296,
276,
278,
287,
245,
223,
219,
235,
209,
179,
194,
162,
147,
164,
159,
153,
142,
144,
104,
120,
130,
97,
117,
101,
80,
105,
87,
73,
70,
52,
56,
60,
59,
45,
51,
46,
36,
39,
40,
25,
25,
26,
23,
28,
15,
20,
11,
12,
12,
12,
8,
13,
10,
5,
2,
0,
0,
0,
0,
0,
0,
0,
0,
0,
0,
0,
1,
0,
0,
0,
0,
0,
0,
0,
0,
0,
0,
0,
0,
0,
0,
0,
0,
0,
0,
0,
0,
0,
0,
0,
0,
0,
1,
0,
0,
0,
0,
0,
0,
0,
0,
0,
0,
0,
0,
0,
0,
0,
0,
0,
0,
0,
0,
0,
0,
0,
0,
0,
0,
0,
0,
0,
0,
0,
0,
0,
0,
0,
0,
0,
0,
0,
0,
0,
0,
0,
0,
0,
0,
0,
0,
0,
0,
0,
0,
0,
0,
0,
0,
0,
0,
0,
0,
0,
0,
0,
0,
0,
0,
0,
0,
0,
0,
0,
0,
0,
0,
0,
0,
0,
0,
0,
0,
0,
0,
0,
0,
0,
0,
0,
0,
0,
0,
0,
0,
0,
0,
0,
0,
0,
0,
0,
0,
0,
0,
0,
0,
0,
0,
0,
0,
0,
0,
0,
0,
0,
0,
0,
#ENDOFDATA   :