File: N132962/Quantification/20 keV/MMM2/SPI MM2 SPI Orthoclaise[6][4].msa
#FORMAT      : EMSA/MAS Spectral Data File
#VERSION     : 1.0
#TITLE       : SPI MM2 SPI Orthoclaise[6][all]
#DATE        : 13-MAR-2025
#TIME        : 10:29
#OWNER       : Unknown
#NPOINTS     : 4096
#NCOLUMNS    : 1
#XUNITS      : eV
#YUNITS      : counts
#DATATYPE    : Y
#XPERCHAN    : 9.99778
#OFFSET      : 1.69135
#BEAMKV      : 20
#SIGNALTYPE  : EDS
#ELEVANGLE   : 35
#AZIMANGLE   : 0
#LIVETIME    : 239.869
#REALTIME    : 255.98
#PROBECUR    : 1.02606
#TAUWIND     : 0
#TDEADLYR    : 0
#TACTLYR     : 0.045
#TALWIND     : 0.025
#CHOFFSET    : 0.0
#XLABEL      : Energy (eV)
#YLABEL      : Counts
#XPOSITION   : 6.12003
#YPOSITION   : 0.12852
#ZPOSITION   : 31.0351
#EDSDET      : SD
##SPECIMEN   : SPI MM2 SPI Orthoclaise[6][all]
##D2STDCMP   : SPI Orthoclaise,(O:45.86),(Na:0.67),(Al:8.85),(Si:30.29),(K:12.85),(Fe:1.4),(Ba:0.04),5.0
##DET_HASH   : 12273538-fd48-a23f-0a19-f1e6fa85caef
##CALIB_HASH : 6abaa72c-aa41-8738-0be9-f592914732f3
##WORKING    : 15.0 mm
##DET_NAME   : EDAX All
##DET_MODE   : MediumLE
#SPECTRUM    :
28,
181,
9386,
4471,
41991,
3674,
2603,
3390,
3780,
4442,
9350,
30172,
73886,
34803,
2575,
2459,
2885,
2501,
2349,
2530,
2418,
2436,
2322,
9879,
41037,
3722,
6186,
1723,
1750,
1707,
1628,
1561,
1542,
1504,
1488,
1443,
1524,
1364,
1289,
1242,
1164,
1169,
1124,
1105,
1002,
1752,
3593,
977,
945,
847,
1129,
1017,
764,
830,
741,
697,
675,
659,
689,
637,
623,
572,
572,
547,
565,
521,
516,
497,
444,
480,
443,
407,
411,
357,
371,
388,
320,
307,
309,
315,
301,
258,
265,
245,
236,
244,
235,
227,
238,
207,
201,
174,
170,
154,
166,
165,
147,
125,
146,
127,
120,
118,
121,
74,
89,
84,
100,
77,
70,
82,
61,
62,
67,
56,
56,
56,
40,
36,
50,
33,
46,
23,
32,
23,
15,
21,
21,
12,
22,
20,
19,
14,
10,
16,
9,
7,
6,
6,
9,
5,
3,
0,
2,
1,
0,
0,
1,
1,
0,
0,
0,
0,
0,
0,
0,
0,
0,
0,
0,
0,
0,
0,
1,
0,
0,
0,
0,
0,
0,
0,
0,
0,
0,
0,
0,
0,
0,
0,
0,
0,
0,
0,
1,
0,
0,
0,
0,
0,
0,
0,
0,
0,
0,
0,
0,
0,
0,
0,
0,
0,
0,
0,
0,
0,
0,
0,
0,
0,
0,
0,
0,
0,
0,
0,
0,
0,
0,
0,
0,
0,
0,
0,
0,
0,
0,
0,
0,
0,
0,
0,
0,
0,
0,
0,
0,
0,
0,
0,
0,
0,
0,
0,
0,
0,
0,
0,
0,
0,
0,
0,
0,
0,
0,
0,
0,
0,
0,
0,
0,
0,
0,
0,
0,
0,
0,
0,
0,
0,
0,
0,
0,
0,
0,
0,
0,
0,
0,
0,
0,
0,
0,
0,
0,
0,
0,
0,
0,
0,
0,
0,
0,
0,
0,
0,
#ENDOFDATA   :