File: N132962/Quantification/20 keV/MMM2/SPI MM2 Scheelite[3][4].msa
#FORMAT      : EMSA/MAS Spectral Data File
#VERSION     : 1.0
#TITLE       : SPI MM2 Scheelite[3][all]
#DATE        : 13-MAR-2025
#TIME        : 12:15
#OWNER       : Unknown
#NPOINTS     : 4096
#NCOLUMNS    : 1
#XUNITS      : eV
#YUNITS      : counts
#DATATYPE    : Y
#XPERCHAN    : 9.99778
#OFFSET      : 1.69135
#BEAMKV      : 20
#SIGNALTYPE  : EDS
#ELEVANGLE   : 35
#AZIMANGLE   : 0
#LIVETIME    : 239.974
#REALTIME    : 263.081
#PROBECUR    : 1.02616
#TAUWIND     : 0
#TDEADLYR    : 0
#TACTLYR     : 0.045
#TALWIND     : 0.025
#CHOFFSET    : 0.0
#XLABEL      : Energy (eV)
#YLABEL      : Counts
#XPOSITION   : -2.80884
#YPOSITION   : 2.03971
#ZPOSITION   : 31.03511
#EDSDET      : SD
##SPECIMEN   : SPI MM2 Scheelite[3][all]
##DET_HASH   : 12273538-fd48-a23f-0a19-f1e6fa85caef
##CALIB_HASH : 6abaa72c-aa41-8738-0be9-f592914732f3
##WORKING    : 15.0 mm
##DET_NAME   : EDAX All
##DET_MODE   : MediumLE
#SPECTRUM    :
34,
542,
17694,
4717,
20291,
4996,
6145,
6821,
7718,
8732,
21072,
9842,
21564,
180528,
7148,
6099,
5513,
5558,
4800,
4712,
4887,
4708,
4845,
4846,
4795,
5207,
37302,
15054,
6255,
9402,
4352,
4269,
4162,
4129,
4102,
3944,
3973,
3863,
3819,
3998,
3622,
3671,
3426,
3372,
3321,
3387,
3468,
3154,
3035,
3061,
2937,
2814,
3117,
3979,
2804,
2640,
2497,
2432,
2505,
6769,
27365,
4284,
2453,
2153,
2109,
2047,
1917,
2009,
3932,
10818,
4766,
6367,
2708,
1829,
1508,
1402,
1372,
1375,
1361,
1288,
2074,
2127,
1377,
1536,
1177,
1045,
1083,
963,
893,
890,
824,
807,
819,
755,
777,
716,
665,
656,
644,
604,
573,
540,
565,
539,
505,
449,
476,
444,
400,
378,
349,
358,
342,
363,
299,
283,
266,
273,
216,
221,
197,
166,
186,
155,
155,
134,
136,
116,
123,
92,
86,
84,
80,
83,
78,
41,
35,
43,
27,
30,
22,
16,
8,
3,
4,
5,
1,
9,
2,
5,
1,
0,
3,
2,
0,
4,
1,
1,
1,
0,
2,
2,
3,
1,
2,
0,
3,
0,
1,
0,
0,
3,
0,
0,
0,
1,
1,
0,
0,
1,
1,
0,
1,
0,
3,
0,
0,
0,
2,
0,
1,
0,
1,
0,
0,
0,
0,
1,
0,
1,
0,
0,
0,
0,
0,
0,
0,
0,
1,
0,
0,
1,
0,
0,
1,
0,
0,
0,
0,
0,
0,
0,
0,
0,
0,
0,
0,
0,
0,
0,
0,
0,
0,
0,
0,
0,
0,
0,
0,
0,
0,
0,
0,
0,
0,
0,
0,
0,
0,
0,
0,
0,
0,
0,
0,
0,
0,
0,
0,
0,
0,
0,
0,
0,
0,
0,
0,
0,
0,
0,
0,
0,
0,
0,
0,
0,
0,
0,
0,
0,
0,
0,
0,
0,
0,
0,
0,
0,
0,
0,
0,
0,
0,
0,
#ENDOFDATA   :