File: N132962/Quantification/20 keV/MMM2/SPI MM2 Pyrope[3][4].msa
#FORMAT      : EMSA/MAS Spectral Data File
#VERSION     : 1.0
#TITLE       : SPI MM2 Pyrope[3][all]
#DATE        : 13-MAR-2025
#TIME        : 12:43
#OWNER       : Unknown
#NPOINTS     : 4096
#NCOLUMNS    : 1
#XUNITS      : eV
#YUNITS      : counts
#DATATYPE    : Y
#XPERCHAN    : 9.99778
#OFFSET      : 1.69135
#BEAMKV      : 20
#SIGNALTYPE  : EDS
#ELEVANGLE   : 35
#AZIMANGLE   : 0
#LIVETIME    : 239.931
#REALTIME    : 255.142
#PROBECUR    : 1.02627
#TAUWIND     : 0
#TDEADLYR    : 0
#TACTLYR     : 0.045
#TALWIND     : 0.025
#CHOFFSET    : 0.0
#XLABEL      : Energy (eV)
#YLABEL      : Counts
#XPOSITION   : 4.57482
#YPOSITION   : 1.52165
#ZPOSITION   : 31.03511
#EDSDET      : SD
##SPECIMEN   : SPI MM2 Pyrope[3][all]
##D2STDCMP   : Pyrope,(O:47.6258),(Mg:18.0873),(Al:13.3861),(Si:20.9007),5.0
##DET_HASH   : 12273538-fd48-a23f-0a19-f1e6fa85caef
##CALIB_HASH : 6abaa72c-aa41-8738-0be9-f592914732f3
##WORKING    : 15.0 mm
##DET_NAME   : EDAX All
##DET_MODE   : MediumLE
#SPECTRUM    :
14,
172,
9450,
6087,
58174,
7344,
2595,
3241,
4375,
94672,
8453,
30761,
40743,
19856,
2638,
2300,
2719,
2411,
2464,
2373,
2348,
2430,
2301,
2217,
2038,
2187,
9286,
4206,
2122,
2924,
1718,
1621,
2541,
1716,
1478,
1653,
1404,
1333,
1799,
2637,
1235,
1116,
1735,
1199,
1082,
3910,
10252,
1044,
944,
937,
1910,
1355,
827,
762,
722,
748,
687,
680,
672,
659,
633,
585,
567,
519,
522,
533,
480,
469,
470,
458,
428,
423,
380,
379,
395,
327,
363,
307,
311,
320,
308,
278,
277,
273,
244,
248,
204,
222,
194,
200,
196,
174,
176,
183,
164,
152,
144,
157,
142,
114,
134,
105,
117,
88,
91,
115,
76,
81,
78,
73,
74,
70,
61,
52,
49,
47,
41,
43,
40,
37,
36,
25,
22,
23,
29,
22,
18,
17,
18,
22,
14,
14,
9,
7,
10,
8,
2,
5,
5,
2,
2,
1,
1,
0,
0,
1,
0,
0,
0,
0,
0,
0,
0,
0,
0,
0,
0,
0,
0,
0,
0,
0,
0,
0,
0,
0,
0,
0,
0,
0,
0,
0,
0,
0,
0,
0,
0,
0,
0,
0,
0,
0,
0,
0,
0,
0,
0,
0,
0,
0,
0,
0,
0,
0,
0,
0,
0,
0,
0,
0,
0,
0,
0,
0,
0,
0,
0,
0,
0,
0,
0,
0,
0,
0,
0,
0,
0,
0,
0,
0,
0,
0,
0,
0,
0,
0,
0,
0,
0,
0,
0,
0,
0,
0,
0,
0,
0,
0,
0,
0,
0,
0,
0,
0,
0,
0,
0,
0,
0,
0,
0,
0,
0,
0,
0,
0,
0,
0,
0,
0,
0,
0,
0,
0,
0,
0,
0,
0,
0,
0,
0,
0,
0,
0,
0,
0,
0,
0,
0,
0,
0,
0,
0,
0,
0,
0,
0,
0,
0,
0,
0,
0,
0,
0,
#ENDOFDATA   :