File: N132962/Quantification/20 keV/MMM2/SPI MM2 Zircon[4][4].msa
#FORMAT      : EMSA/MAS Spectral Data File
#VERSION     : 1.0
#TITLE       : SPI MM2 Zircon[4][all]
#DATE        : 13-MAR-2025
#TIME        : 13:49
#OWNER       : Unknown
#NPOINTS     : 4096
#NCOLUMNS    : 1
#XUNITS      : eV
#YUNITS      : counts
#DATATYPE    : Y
#XPERCHAN    : 9.99778
#OFFSET      : 1.69135
#BEAMKV      : 20
#SIGNALTYPE  : EDS
#ELEVANGLE   : 35
#AZIMANGLE   : 0
#LIVETIME    : 239.85
#REALTIME    : 257.455
#PROBECUR    : 1.0264
#TAUWIND     : 0
#TDEADLYR    : 0
#TACTLYR     : 0.045
#TALWIND     : 0.025
#CHOFFSET    : 0.0
#XLABEL      : Energy (eV)
#YLABEL      : Counts
#XPOSITION   : -2.60623
#YPOSITION   : 6.68041
#ZPOSITION   : 31.03511
#EDSDET      : SD
##SPECIMEN   : SPI MM2 Zircon[4][all]
##DET_HASH   : 12273538-fd48-a23f-0a19-f1e6fa85caef
##CALIB_HASH : 6abaa72c-aa41-8738-0be9-f592914732f3
##WORKING    : 15.0 mm
##DET_NAME   : EDAX All
##DET_MODE   : MediumLE
#SPECTRUM    :
24,
685,
14506,
4518,
25558,
3495,
4350,
4811,
5570,
6477,
7026,
7854,
51242,
32302,
27900,
102055,
12237,
3312,
4091,
3098,
3119,
3091,
3152,
3222,
3183,
3262,
3030,
3264,
3198,
3053,
2901,
2825,
2786,
2608,
2599,
2574,
2397,
2446,
2302,
2304,
2208,
2160,
2089,
1954,
2041,
1924,
2104,
1783,
1739,
1708,
1725,
1637,
1602,
1653,
1478,
1501,
1648,
1540,
1306,
1348,
1217,
1231,
1169,
1189,
1199,
1125,
1048,
1073,
991,
944,
899,
893,
900,
899,
809,
853,
708,
731,
718,
650,
639,
651,
638,
619,
608,
548,
499,
476,
485,
462,
460,
435,
421,
409,
337,
368,
360,
323,
284,
287,
308,
240,
295,
263,
226,
228,
208,
204,
191,
193,
166,
213,
457,
393,
151,
128,
107,
107,
95,
87,
100,
82,
94,
86,
74,
87,
100,
72,
49,
46,
29,
28,
28,
29,
27,
22,
12,
21,
12,
9,
8,
7,
2,
2,
0,
1,
0,
0,
0,
1,
1,
1,
0,
1,
1,
0,
1,
0,
0,
0,
1,
0,
1,
0,
0,
2,
0,
0,
0,
0,
0,
0,
0,
0,
0,
0,
1,
0,
0,
1,
1,
0,
0,
0,
0,
0,
1,
1,
0,
0,
0,
0,
0,
0,
0,
0,
0,
0,
0,
0,
0,
0,
1,
0,
0,
0,
0,
0,
0,
0,
0,
0,
0,
0,
0,
0,
0,
0,
0,
0,
0,
0,
0,
0,
0,
0,
0,
0,
0,
0,
0,
0,
0,
0,
0,
0,
0,
0,
0,
0,
0,
0,
0,
0,
0,
0,
0,
0,
0,
0,
0,
0,
0,
0,
0,
0,
0,
0,
0,
0,
0,
0,
0,
0,
0,
0,
0,
0,
0,
0,
0,
0,
0,
0,
0,
0,
0,
0,
0,
0,
0,
0,
0,
0,
0,
0,
0,
0,
0,
0,
0,
0,
0,
0,
#ENDOFDATA   :