File: N132962/Quantification/20 keV/MMM2/SPI MM2 SPI Magnetite[1][4].msa
#FORMAT      : EMSA/MAS Spectral Data File
#VERSION     : 1.0
#TITLE       : SPI MM2 SPI Magnetite[1][all]
#DATE        : 13-MAR-2025
#TIME        : 09:19
#OWNER       : Unknown
#NPOINTS     : 4096
#NCOLUMNS    : 1
#XUNITS      : eV
#YUNITS      : counts
#DATATYPE    : Y
#XPERCHAN    : 9.99778
#OFFSET      : 1.69135
#BEAMKV      : 20
#SIGNALTYPE  : EDS
#ELEVANGLE   : 35
#AZIMANGLE   : 0
#LIVETIME    : 239.922
#REALTIME    : 256.873
#PROBECUR    : 1.02582
#TAUWIND     : 0
#TDEADLYR    : 0
#TACTLYR     : 0.045
#TALWIND     : 0.025
#CHOFFSET    : 0.0
#XLABEL      : Energy (eV)
#YLABEL      : Counts
#XPOSITION   : 3.82889
#YPOSITION   : -4.1503
#ZPOSITION   : 31.03509
#EDSDET      : SD
##SPECIMEN   : SPI MM2 SPI Magnetite[1][all]
##D2STDCMP   : SPI Magnetite,(O:27.53),(Si:0.01),(Mn:0.18),(Fe:71.88)
##DET_HASH   : 12273538-fd48-a23f-0a19-f1e6fa85caef
##CALIB_HASH : 6abaa72c-aa41-8738-0be9-f592914732f3
##WORKING    : 15.0 mm
##DET_NAME   : EDAX All
##DET_MODE   : MediumLE
#SPECTRUM    :
29,
291,
11819,
9493,
66535,
51760,
2318,
2387,
2795,
3415,
3838,
4159,
4724,
4849,
4317,
4462,
4450,
4541,
4426,
4362,
4146,
4079,
3799,
3716,
3702,
3575,
3324,
3251,
3094,
3106,
3072,
2943,
2878,
3236,
2721,
2622,
2615,
2435,
2472,
2296,
2239,
2168,
2590,
2167,
2408,
36163,
109427,
3036,
1915,
2435,
14332,
7905,
1218,
1285,
1286,
1249,
1174,
1128,
1149,
1059,
1067,
1078,
972,
929,
920,
917,
842,
833,
829,
804,
837,
753,
756,
698,
744,
687,
678,
647,
572,
583,
568,
538,
511,
522,
473,
426,
465,
414,
446,
398,
401,
465,
423,
317,
336,
332,
307,
281,
258,
239,
254,
269,
256,
224,
197,
191,
199,
170,
171,
169,
164,
174,
142,
121,
141,
96,
90,
84,
75,
84,
74,
77,
75,
81,
64,
49,
48,
45,
27,
36,
41,
31,
24,
25,
27,
23,
15,
12,
12,
9,
7,
5,
7,
2,
1,
1,
1,
2,
0,
0,
1,
0,
0,
0,
1,
1,
1,
0,
1,
0,
1,
2,
0,
0,
0,
0,
0,
1,
1,
0,
0,
0,
1,
1,
1,
0,
1,
0,
0,
0,
0,
0,
0,
0,
0,
1,
0,
0,
0,
0,
0,
0,
0,
0,
0,
0,
0,
0,
0,
0,
0,
0,
0,
0,
0,
0,
0,
0,
0,
0,
0,
0,
0,
0,
0,
0,
0,
0,
0,
0,
0,
0,
0,
0,
0,
0,
0,
0,
0,
0,
0,
0,
0,
0,
0,
0,
0,
0,
0,
0,
0,
0,
0,
0,
0,
0,
0,
0,
0,
0,
0,
0,
0,
0,
0,
0,
0,
0,
0,
0,
0,
0,
0,
0,
0,
0,
0,
0,
0,
0,
0,
0,
0,
0,
0,
0,
0,
0,
0,
0,
0,
0,
0,
0,
0,
0,
0,
0,
0,
0,
0,
0,
0,
0,
#ENDOFDATA   :