File: N132962/Quantification/20 keV/MMM2/SPI MM2 Rhodonite[7][4].msa
#FORMAT      : EMSA/MAS Spectral Data File
#VERSION     : 1.0
#TITLE       : SPI MM2 Rhodonite[7][all]
#DATE        : 13-MAR-2025
#TIME        : 12:29
#OWNER       : Unknown
#NPOINTS     : 4096
#NCOLUMNS    : 1
#XUNITS      : eV
#YUNITS      : counts
#DATATYPE    : Y
#XPERCHAN    : 9.99778
#OFFSET      : 1.69135
#BEAMKV      : 20
#SIGNALTYPE  : EDS
#ELEVANGLE   : 35
#AZIMANGLE   : 0
#LIVETIME    : 239.931
#REALTIME    : 255.982
#PROBECUR    : 1.02616
#TAUWIND     : 0
#TDEADLYR    : 0
#TACTLYR     : 0.045
#TALWIND     : 0.025
#CHOFFSET    : 0.0
#XLABEL      : Energy (eV)
#YLABEL      : Counts
#XPOSITION   : 0.12776
#YPOSITION   : 1.23483
#ZPOSITION   : 31.03511
#EDSDET      : SD
##SPECIMEN   : SPI MM2 Rhodonite[7][all]
##DET_HASH   : 12273538-fd48-a23f-0a19-f1e6fa85caef
##CALIB_HASH : 6abaa72c-aa41-8738-0be9-f592914732f3
##WORKING    : 15.0 mm
##DET_NAME   : EDAX All
##DET_MODE   : MediumLE
#SPECTRUM    :
15,
216,
14663,
6731,
60390,
5828,
2308,
2683,
3364,
9964,
4234,
4875,
51573,
25200,
3179,
3141,
3609,
3279,
3161,
3170,
3173,
3029,
2839,
2813,
2686,
2927,
10634,
5093,
2764,
3527,
2448,
2133,
1993,
2044,
1998,
1850,
1870,
1756,
1675,
1633,
1643,
3486,
68565,
7058,
1432,
3239,
12845,
3741,
1126,
1134,
1577,
1216,
1005,
964,
974,
983,
877,
865,
819,
813,
748,
769,
776,
686,
666,
655,
662,
637,
666,
595,
566,
562,
527,
521,
477,
458,
467,
447,
422,
413,
435,
383,
364,
346,
381,
332,
291,
307,
305,
312,
275,
241,
258,
231,
205,
227,
197,
175,
178,
152,
156,
151,
162,
145,
142,
131,
131,
111,
119,
102,
91,
93,
89,
76,
68,
59,
62,
74,
62,
66,
43,
41,
49,
43,
37,
35,
33,
27,
20,
23,
24,
14,
17,
16,
18,
13,
15,
9,
8,
2,
6,
5,
1,
0,
0,
0,
0,
0,
0,
1,
0,
0,
1,
0,
0,
0,
1,
0,
0,
1,
0,
0,
0,
0,
0,
1,
0,
0,
0,
0,
0,
0,
0,
0,
0,
0,
0,
0,
0,
0,
0,
0,
0,
0,
0,
0,
0,
0,
0,
0,
0,
0,
0,
0,
0,
0,
0,
0,
0,
0,
0,
0,
0,
0,
0,
0,
0,
0,
0,
0,
0,
0,
0,
0,
0,
0,
0,
0,
0,
0,
0,
0,
0,
0,
0,
0,
0,
0,
0,
0,
0,
0,
0,
0,
0,
0,
0,
0,
0,
0,
0,
0,
0,
0,
0,
0,
0,
0,
0,
0,
0,
0,
0,
0,
0,
0,
0,
0,
0,
0,
0,
0,
0,
0,
0,
0,
0,
0,
0,
0,
0,
0,
0,
0,
0,
0,
0,
0,
0,
0,
0,
0,
0,
0,
0,
0,
0,
0,
0,
0,
0,
0,
0,
0,
#ENDOFDATA   :