File: N132962/Quantification/20 keV/MMM2/SPI MM2 SPI Pollucite[0][4].msa
#FORMAT      : EMSA/MAS Spectral Data File
#VERSION     : 1.0
#TITLE       : SPI MM2 SPI Pollucite[0][all]
#DATE        : 13-MAR-2025
#TIME        : 10:59
#OWNER       : Unknown
#NPOINTS     : 4096
#NCOLUMNS    : 1
#XUNITS      : eV
#YUNITS      : counts
#DATATYPE    : Y
#XPERCHAN    : 9.99778
#OFFSET      : 1.69135
#BEAMKV      : 20
#SIGNALTYPE  : EDS
#ELEVANGLE   : 35
#AZIMANGLE   : 0
#LIVETIME    : 239.858
#REALTIME    : 257.051
#PROBECUR    : 1.02609
#TAUWIND     : 0
#TDEADLYR    : 0
#TACTLYR     : 0.045
#TALWIND     : 0.025
#CHOFFSET    : 0.0
#XLABEL      : Energy (eV)
#YLABEL      : Counts
#XPOSITION   : -4.06911
#YPOSITION   : -1.14413
#ZPOSITION   : 31.0351
#EDSDET      : SD
##SPECIMEN   : SPI MM2 SPI Pollucite[0][all]
##D2STDCMP   : SPI Pollucite,(Li:0.05),(O:35.94),(Na:1.5),(Al:9.06),(Si:22.2),(K:0.05),(Rb:0.17),(Cs:32.3)
##DET_HASH   : 12273538-fd48-a23f-0a19-f1e6fa85caef
##CALIB_HASH : 6abaa72c-aa41-8738-0be9-f592914732f3
##WORKING    : 15.0 mm
##DET_NAME   : EDAX All
##DET_MODE   : MediumLE
#SPECTRUM    :
22,
242,
11610,
7649,
64768,
5011,
3480,
5658,
4035,
4344,
7925,
23186,
44350,
22237,
3696,
3588,
4016,
3659,
4177,
3780,
3650,
3821,
3428,
3576,
3433,
3341,
3193,
4830,
3245,
3254,
13587,
28246,
3451,
24411,
6606,
8201,
3458,
2642,
4366,
2471,
2774,
2016,
1814,
1788,
1693,
1663,
1815,
1622,
1501,
1511,
1556,
1411,
1386,
1411,
1343,
1288,
1230,
1239,
1135,
1117,
1067,
1048,
1083,
1023,
945,
922,
925,
892,
838,
850,
834,
790,
765,
750,
728,
702,
684,
615,
618,
568,
579,
571,
557,
479,
491,
517,
493,
428,
423,
368,
427,
404,
356,
385,
374,
354,
298,
300,
307,
267,
273,
277,
231,
239,
215,
195,
187,
158,
152,
163,
147,
143,
134,
147,
125,
139,
117,
86,
110,
105,
88,
57,
80,
67,
56,
47,
50,
45,
40,
32,
38,
30,
26,
23,
25,
20,
19,
9,
9,
13,
5,
4,
2,
1,
4,
1,
1,
0,
0,
0,
0,
1,
1,
1,
0,
0,
0,
0,
0,
1,
1,
0,
0,
0,
0,
2,
0,
0,
1,
0,
0,
0,
0,
0,
0,
0,
0,
0,
0,
0,
0,
0,
0,
0,
0,
0,
0,
0,
0,
0,
0,
1,
1,
0,
0,
0,
0,
0,
0,
0,
0,
0,
0,
0,
0,
0,
0,
0,
0,
0,
0,
0,
0,
0,
0,
0,
0,
0,
0,
0,
0,
0,
0,
0,
0,
0,
0,
0,
0,
0,
0,
0,
0,
0,
0,
0,
0,
0,
0,
0,
0,
0,
0,
0,
0,
0,
0,
0,
0,
0,
0,
0,
0,
0,
0,
0,
0,
0,
0,
0,
0,
0,
0,
0,
0,
0,
0,
0,
0,
0,
0,
0,
0,
0,
0,
0,
0,
0,
0,
0,
0,
0,
0,
0,
0,
0,
0,
0,
0,
0,
0,
0,
0,
0,
#ENDOFDATA   :