File: N132962/Quantification/20 keV/MMM2/SPI MM2 Rhodonite[3][4].msa
#FORMAT      : EMSA/MAS Spectral Data File
#VERSION     : 1.0
#TITLE       : SPI MM2 Rhodonite[3][all]
#DATE        : 13-MAR-2025
#TIME        : 12:24
#OWNER       : Unknown
#NPOINTS     : 4096
#NCOLUMNS    : 1
#XUNITS      : eV
#YUNITS      : counts
#DATATYPE    : Y
#XPERCHAN    : 9.99778
#OFFSET      : 1.69135
#BEAMKV      : 20
#SIGNALTYPE  : EDS
#ELEVANGLE   : 35
#AZIMANGLE   : 0
#LIVETIME    : 239.833
#REALTIME    : 256.23
#PROBECUR    : 1.02616
#TAUWIND     : 0
#TDEADLYR    : 0
#TACTLYR     : 0.045
#TALWIND     : 0.025
#CHOFFSET    : 0.0
#XLABEL      : Energy (eV)
#YLABEL      : Counts
#XPOSITION   : -0.01943
#YPOSITION   : 1.23308
#ZPOSITION   : 31.03511
#EDSDET      : SD
##SPECIMEN   : SPI MM2 Rhodonite[3][all]
##DET_HASH   : 12273538-fd48-a23f-0a19-f1e6fa85caef
##CALIB_HASH : 6abaa72c-aa41-8738-0be9-f592914732f3
##WORKING    : 15.0 mm
##DET_NAME   : EDAX All
##DET_MODE   : MediumLE
#SPECTRUM    :
16,
226,
10614,
6759,
62271,
5928,
2331,
2844,
3297,
10135,
4269,
5029,
52652,
25653,
3315,
3147,
3650,
3307,
3285,
3016,
3143,
3125,
2874,
2786,
2733,
2978,
10966,
5181,
2815,
3615,
2386,
2123,
2054,
2111,
2067,
1910,
1954,
1807,
1710,
1712,
1730,
3490,
70488,
7214,
1505,
3189,
13059,
3739,
1123,
1090,
1611,
1301,
1000,
1006,
1026,
992,
853,
889,
860,
814,
786,
811,
749,
729,
750,
663,
686,
604,
614,
551,
567,
601,
558,
495,
530,
516,
448,
483,
473,
430,
414,
402,
395,
396,
380,
365,
312,
286,
324,
297,
295,
225,
238,
250,
255,
179,
169,
206,
188,
175,
145,
157,
163,
150,
160,
137,
145,
122,
118,
86,
100,
89,
96,
81,
76,
72,
57,
70,
58,
54,
54,
43,
43,
45,
40,
30,
27,
30,
19,
19,
24,
17,
16,
11,
12,
7,
17,
8,
10,
10,
7,
2,
0,
0,
1,
0,
0,
3,
0,
0,
0,
0,
0,
0,
0,
1,
0,
0,
0,
0,
0,
0,
0,
0,
1,
0,
0,
0,
0,
0,
0,
0,
0,
0,
0,
0,
0,
0,
0,
0,
0,
0,
0,
0,
0,
0,
0,
0,
0,
0,
0,
0,
0,
0,
0,
0,
0,
0,
0,
0,
0,
0,
0,
0,
0,
0,
0,
0,
0,
1,
0,
0,
0,
0,
0,
0,
0,
0,
0,
0,
0,
0,
0,
0,
0,
0,
0,
0,
0,
0,
0,
0,
0,
0,
0,
0,
0,
0,
0,
0,
0,
0,
0,
0,
0,
0,
0,
0,
0,
0,
0,
0,
0,
0,
0,
0,
0,
0,
0,
0,
0,
0,
0,
0,
0,
0,
0,
0,
0,
0,
0,
0,
0,
0,
0,
0,
0,
0,
0,
0,
0,
0,
0,
0,
0,
0,
0,
0,
0,
0,
0,
0,
0,
0,
#ENDOFDATA   :