File: N132962/Quantification/20 keV/MMM2/SPI MM2 Tugtupite[5][4].msa
#FORMAT      : EMSA/MAS Spectral Data File
#VERSION     : 1.0
#TITLE       : SPI MM2 Tugtupite[5][all]
#DATE        : 13-MAR-2025
#TIME        : 13:41
#OWNER       : Unknown
#NPOINTS     : 4096
#NCOLUMNS    : 1
#XUNITS      : eV
#YUNITS      : counts
#DATATYPE    : Y
#XPERCHAN    : 9.99778
#OFFSET      : 1.69135
#BEAMKV      : 20
#SIGNALTYPE  : EDS
#ELEVANGLE   : 35
#AZIMANGLE   : 0
#LIVETIME    : 239.862
#REALTIME    : 255.4
#PROBECUR    : 1.0264
#TAUWIND     : 0
#TDEADLYR    : 0
#TACTLYR     : 0.045
#TALWIND     : 0.025
#CHOFFSET    : 0.0
#XLABEL      : Energy (eV)
#YLABEL      : Counts
#XPOSITION   : -4.47263
#YPOSITION   : 3.55898
#ZPOSITION   : 31.03511
#EDSDET      : SD
##SPECIMEN   : SPI MM2 Tugtupite[5][all]
##DET_HASH   : 12273538-fd48-a23f-0a19-f1e6fa85caef
##CALIB_HASH : 6abaa72c-aa41-8738-0be9-f592914732f3
##WORKING    : 15.0 mm
##DET_NAME   : EDAX All
##DET_MODE   : MediumLE
#SPECTRUM    :
25,
219,
8355,
5342,
51349,
2234,
3636,
29904,
8719,
3136,
6194,
18752,
56111,
26782,
2327,
2442,
2684,
2408,
5318,
29706,
5851,
2089,
2030,
2083,
1862,
2056,
1822,
1736,
1655,
1618,
1496,
1576,
1467,
1416,
1393,
1300,
1281,
1258,
1204,
1208,
1139,
1062,
1043,
998,
945,
946,
966,
896,
870,
822,
783,
705,
708,
698,
667,
680,
599,
608,
568,
592,
524,
541,
559,
503,
479,
495,
450,
399,
398,
445,
381,
374,
353,
400,
298,
298,
304,
280,
313,
292,
287,
260,
261,
224,
240,
228,
209,
200,
183,
168,
163,
178,
179,
153,
146,
116,
127,
133,
107,
105,
102,
99,
88,
79,
94,
83,
79,
64,
76,
54,
68,
68,
56,
42,
54,
33,
43,
39,
32,
38,
33,
29,
18,
24,
26,
21,
16,
16,
16,
11,
13,
12,
8,
7,
6,
7,
6,
5,
2,
1,
2,
3,
0,
0,
0,
0,
0,
0,
0,
0,
0,
0,
0,
0,
0,
0,
0,
0,
0,
0,
0,
2,
0,
0,
0,
0,
0,
0,
0,
0,
0,
0,
0,
0,
0,
0,
0,
0,
0,
0,
0,
0,
0,
0,
0,
0,
0,
0,
0,
0,
0,
0,
0,
0,
0,
0,
0,
0,
0,
0,
0,
0,
0,
0,
0,
0,
0,
0,
0,
0,
0,
0,
0,
0,
0,
0,
0,
0,
0,
0,
0,
0,
0,
0,
0,
0,
0,
0,
0,
0,
0,
0,
0,
0,
0,
0,
0,
0,
0,
0,
0,
0,
0,
0,
0,
0,
0,
0,
0,
0,
0,
0,
0,
0,
0,
0,
0,
0,
0,
0,
0,
0,
0,
0,
0,
0,
0,
0,
0,
0,
0,
0,
0,
0,
0,
0,
0,
0,
0,
0,
0,
0,
0,
0,
0,
0,
0,
0,
0,
0,
0,
0,
0,
0,
#ENDOFDATA   :