File: N132962/Quantification/20 keV/MMM2/SPI MM2 SPI Obsidian[5][4].msa
#FORMAT      : EMSA/MAS Spectral Data File
#VERSION     : 1.0
#TITLE       : SPI MM2 SPI Obsidian[5][all]
#DATE        : 13-MAR-2025
#TIME        : 10:00
#OWNER       : Unknown
#NPOINTS     : 4096
#NCOLUMNS    : 1
#XUNITS      : eV
#YUNITS      : counts
#DATATYPE    : Y
#XPERCHAN    : 9.99778
#OFFSET      : 1.69135
#BEAMKV      : 20
#SIGNALTYPE  : EDS
#ELEVANGLE   : 35
#AZIMANGLE   : 0
#LIVETIME    : 239.853
#REALTIME    : 256.297
#PROBECUR    : 1.02627
#TAUWIND     : 0
#TDEADLYR    : 0
#TACTLYR     : 0.045
#TALWIND     : 0.025
#CHOFFSET    : 0.0
#XLABEL      : Energy (eV)
#YLABEL      : Counts
#XPOSITION   : 0.00762
#YPOSITION   : -3.00123
#ZPOSITION   : 31.03509
#EDSDET      : SD
##SPECIMEN   : SPI MM2 SPI Obsidian[5][all]
##D2STDCMP   : SPI Obsidian,(O:49.01),(Na:2.77),(Mg:0.06),(Al:6.9),(Si:35.66),(K:3.58),(Ca:0.63),(Ti:0.06),(Mn:0.04),(Fe:0.59),5.0
##DET_HASH   : 12273538-fd48-a23f-0a19-f1e6fa85caef
##CALIB_HASH : 6abaa72c-aa41-8738-0be9-f592914732f3
##WORKING    : 15.0 mm
##DET_NAME   : EDAX All
##DET_MODE   : MediumLE
#SPECTRUM    :
21,
181,
8566,
5723,
57177,
2594,
2751,
6473,
4198,
4481,
8049,
25135,
88556,
40928,
2230,
2152,
2914,
2266,
2208,
2310,
2334,
2229,
2095,
4241,
11993,
2889,
4403,
2267,
1760,
1889,
1525,
1500,
1796,
1446,
1415,
1366,
1368,
1198,
1181,
1184,
1026,
1070,
1131,
1070,
960,
1286,
1865,
915,
844,
837,
878,
852,
777,
738,
723,
651,
665,
586,
614,
590,
543,
548,
560,
528,
510,
446,
480,
449,
386,
438,
364,
362,
369,
363,
395,
361,
356,
308,
305,
276,
276,
267,
265,
231,
251,
209,
216,
175,
200,
206,
188,
169,
161,
166,
158,
129,
136,
128,
99,
124,
122,
93,
105,
93,
70,
89,
83,
74,
95,
70,
51,
59,
64,
48,
58,
40,
31,
34,
34,
32,
31,
34,
29,
24,
27,
20,
25,
13,
15,
19,
7,
7,
14,
13,
7,
6,
5,
3,
3,
7,
3,
0,
0,
0,
0,
0,
0,
0,
0,
1,
0,
0,
0,
1,
0,
0,
0,
0,
0,
0,
0,
0,
0,
0,
0,
0,
0,
0,
0,
0,
0,
0,
0,
0,
0,
0,
0,
0,
0,
0,
0,
0,
0,
0,
0,
0,
0,
0,
0,
0,
0,
0,
0,
0,
0,
0,
0,
0,
0,
0,
0,
0,
0,
0,
0,
0,
0,
0,
0,
0,
0,
0,
0,
0,
0,
0,
0,
0,
0,
0,
0,
0,
0,
0,
0,
0,
0,
0,
0,
0,
0,
0,
0,
0,
0,
0,
0,
0,
0,
0,
0,
0,
0,
0,
0,
0,
0,
0,
0,
0,
0,
0,
0,
0,
0,
0,
0,
0,
0,
0,
0,
0,
0,
0,
0,
0,
0,
0,
0,
0,
0,
0,
0,
0,
0,
0,
0,
0,
0,
0,
0,
0,
0,
0,
0,
0,
0,
0,
0,
0,
0,
0,
0,
0,
#ENDOFDATA   :