File: N132962/Quantification/20 keV/MMM2/SPI MM2 SPI Olivine[6][4].msa
#FORMAT      : EMSA/MAS Spectral Data File
#VERSION     : 1.0
#TITLE       : SPI MM2 SPI Olivine[6][all]
#DATE        : 13-MAR-2025
#TIME        : 09:52
#OWNER       : Unknown
#NPOINTS     : 4096
#NCOLUMNS    : 1
#XUNITS      : eV
#YUNITS      : counts
#DATATYPE    : Y
#XPERCHAN    : 9.99778
#OFFSET      : 1.69135
#BEAMKV      : 20
#SIGNALTYPE  : EDS
#ELEVANGLE   : 35
#AZIMANGLE   : 0
#LIVETIME    : 239.554
#REALTIME    : 255.651
#PROBECUR    : 1.02627
#TAUWIND     : 0
#TDEADLYR    : 0
#TACTLYR     : 0.045
#TALWIND     : 0.025
#CHOFFSET    : 0.0
#XLABEL      : Energy (eV)
#YLABEL      : Counts
#XPOSITION   : -3.18235
#YPOSITION   : -2.08236
#ZPOSITION   : 31.03509
#EDSDET      : SD
##SPECIMEN   : SPI MM2 SPI Olivine[6][all]
##D2STDCMP   : SPI Olivine,(O:43.96),(Mg:30.26),(Si:19.14),(Mn:0.089),(Fe:6.35),(Ni:0.278),5.0
##DET_HASH   : 12273538-fd48-a23f-0a19-f1e6fa85caef
##CALIB_HASH : 6abaa72c-aa41-8738-0be9-f592914732f3
##WORKING    : 15.0 mm
##DET_NAME   : EDAX All
##DET_MODE   : MediumLE
#SPECTRUM    :
30,
207,
8598,
6605,
67983,
7207,
3221,
3542,
5693,
239615,
2820,
3225,
39213,
19189,
2239,
2235,
2641,
2301,
2706,
2320,
2215,
2319,
2247,
2123,
1962,
2114,
1955,
1752,
1747,
1727,
1663,
1611,
1522,
1556,
1357,
1340,
1328,
1252,
1269,
1184,
1155,
1139,
1292,
1088,
989,
3623,
9339,
958,
840,
950,
1796,
1280,
740,
1024,
876,
705,
682,
619,
673,
656,
585,
540,
540,
507,
501,
526,
440,
443,
452,
422,
403,
386,
344,
398,
350,
349,
334,
302,
301,
314,
293,
268,
248,
232,
222,
228,
214,
198,
208,
178,
198,
174,
158,
158,
139,
147,
133,
119,
111,
112,
126,
97,
88,
107,
93,
93,
78,
80,
69,
64,
62,
52,
57,
63,
51,
46,
39,
49,
39,
28,
35,
32,
30,
27,
21,
15,
17,
14,
12,
15,
13,
13,
14,
13,
10,
10,
8,
8,
2,
4,
3,
0,
1,
0,
0,
0,
0,
0,
0,
0,
0,
0,
0,
0,
0,
0,
0,
1,
0,
0,
1,
0,
0,
0,
0,
0,
0,
0,
0,
0,
0,
0,
0,
0,
0,
0,
0,
0,
0,
0,
0,
0,
0,
0,
0,
0,
0,
0,
0,
0,
0,
0,
0,
0,
0,
0,
0,
0,
0,
0,
0,
0,
0,
0,
0,
0,
0,
0,
0,
0,
0,
0,
0,
0,
0,
0,
0,
0,
0,
0,
0,
0,
0,
0,
0,
0,
0,
0,
0,
0,
0,
0,
0,
0,
0,
0,
0,
0,
0,
0,
0,
0,
0,
0,
0,
0,
0,
0,
0,
0,
0,
0,
0,
0,
0,
0,
0,
0,
0,
0,
0,
0,
0,
0,
0,
0,
0,
0,
0,
0,
0,
0,
0,
0,
0,
0,
0,
0,
0,
0,
0,
0,
0,
0,
0,
0,
0,
0,
0,
0,
0,
0,
0,
0,
#ENDOFDATA   :