File: N132962/Quantification/20 keV/MMM2/SPI MM2 Spessartine[6][4].msa
#FORMAT      : EMSA/MAS Spectral Data File
#VERSION     : 1.0
#TITLE       : SPI MM2 Spessartine[6][all]
#DATE        : 13-MAR-2025
#TIME        : 12:09
#OWNER       : Unknown
#NPOINTS     : 4096
#NCOLUMNS    : 1
#XUNITS      : eV
#YUNITS      : counts
#DATATYPE    : Y
#XPERCHAN    : 9.99778
#OFFSET      : 1.69135
#BEAMKV      : 20
#SIGNALTYPE  : EDS
#ELEVANGLE   : 35
#AZIMANGLE   : 0
#LIVETIME    : 239.941
#REALTIME    : 256.357
#PROBECUR    : 1.02616
#TAUWIND     : 0
#TDEADLYR    : 0
#TACTLYR     : 0.045
#TALWIND     : 0.025
#CHOFFSET    : 0.0
#XLABEL      : Energy (eV)
#YLABEL      : Counts
#XPOSITION   : -5.73194
#YPOSITION   : 1.54127
#ZPOSITION   : 31.03511
#EDSDET      : SD
##SPECIMEN   : SPI MM2 Spessartine[6][all]
##DET_HASH   : 12273538-fd48-a23f-0a19-f1e6fa85caef
##CALIB_HASH : 6abaa72c-aa41-8738-0be9-f592914732f3
##WORKING    : 15.0 mm
##DET_NAME   : EDAX All
##DET_MODE   : MediumLE
#SPECTRUM    :
20,
225,
9892,
7510,
71627,
5327,
2279,
2766,
3326,
3812,
8961,
30303,
37313,
18705,
3199,
3156,
3471,
3069,
3091,
3016,
3079,
2920,
2862,
2830,
2587,
2653,
3239,
2623,
2356,
2483,
2427,
2115,
2133,
1913,
2039,
1812,
1860,
1716,
1619,
1651,
1678,
3563,
70688,
7163,
1426,
2043,
9527,
3724,
1091,
969,
1146,
1114,
969,
1031,
1029,
974,
838,
839,
829,
771,
728,
730,
773,
696,
725,
625,
645,
616,
610,
632,
534,
525,
464,
483,
472,
437,
440,
434,
403,
408,
366,
394,
345,
356,
344,
316,
321,
288,
283,
278,
231,
262,
246,
244,
200,
196,
199,
211,
197,
166,
166,
155,
133,
115,
127,
114,
118,
99,
128,
98,
103,
96,
90,
79,
67,
65,
62,
55,
63,
44,
53,
52,
56,
37,
36,
29,
23,
36,
28,
21,
21,
20,
22,
14,
11,
8,
14,
5,
5,
5,
0,
3,
1,
0,
0,
0,
1,
0,
0,
0,
0,
1,
0,
0,
0,
0,
0,
1,
0,
0,
0,
0,
0,
0,
0,
0,
0,
0,
0,
0,
0,
0,
0,
0,
0,
0,
0,
0,
0,
0,
0,
0,
0,
0,
0,
0,
0,
0,
0,
0,
0,
0,
0,
0,
0,
0,
0,
0,
0,
0,
0,
0,
0,
0,
0,
0,
0,
0,
0,
0,
0,
0,
0,
0,
0,
0,
0,
0,
0,
0,
0,
0,
0,
0,
0,
0,
0,
0,
0,
0,
0,
0,
0,
0,
0,
0,
0,
0,
0,
0,
0,
0,
0,
0,
0,
0,
0,
0,
0,
0,
0,
0,
0,
0,
0,
0,
0,
0,
0,
0,
0,
0,
0,
0,
0,
0,
0,
0,
0,
0,
0,
0,
0,
0,
0,
0,
0,
0,
0,
0,
0,
0,
0,
0,
0,
0,
0,
0,
0,
0,
0,
0,
0,
0,
#ENDOFDATA   :