File: N132962/Quantification/20 keV/MMM2/SPI MM2 Wollastonite[3][4].msa
#FORMAT      : EMSA/MAS Spectral Data File
#VERSION     : 1.0
#TITLE       : SPI MM2 Wollastonite[3][all]
#DATE        : 13-MAR-2025
#TIME        : 13:57
#OWNER       : Unknown
#NPOINTS     : 4096
#NCOLUMNS    : 1
#XUNITS      : eV
#YUNITS      : counts
#DATATYPE    : Y
#XPERCHAN    : 9.99778
#OFFSET      : 1.69135
#BEAMKV      : 20
#SIGNALTYPE  : EDS
#ELEVANGLE   : 35
#AZIMANGLE   : 0
#LIVETIME    : 239.866
#REALTIME    : 256.167
#PROBECUR    : 1.0264
#TAUWIND     : 0
#TDEADLYR    : 0
#TACTLYR     : 0.045
#TALWIND     : 0.025
#CHOFFSET    : 0.0
#XLABEL      : Energy (eV)
#YLABEL      : Counts
#XPOSITION   : -0.03743
#YPOSITION   : 6.17366
#ZPOSITION   : 31.03511
#EDSDET      : SD
##SPECIMEN   : SPI MM2 Wollastonite[3][all]
##DET_HASH   : 12273538-fd48-a23f-0a19-f1e6fa85caef
##CALIB_HASH : 6abaa72c-aa41-8738-0be9-f592914732f3
##WORKING    : 15.0 mm
##DET_NAME   : EDAX All
##DET_MODE   : MediumLE
#SPECTRUM    :
26,
187,
13802,
3110,
23955,
1963,
2726,
3205,
3718,
4368,
4740,
5679,
66009,
31496,
4735,
3217,
3393,
2965,
3037,
3017,
2982,
2832,
2848,
2785,
2588,
3541,
86765,
29556,
5739,
14563,
1886,
1525,
1701,
1586,
1499,
1473,
1556,
1456,
1445,
1712,
1312,
1253,
1308,
1134,
1163,
1074,
1213,
1059,
1021,
1009,
1018,
969,
944,
973,
857,
839,
852,
781,
740,
733,
669,
677,
659,
632,
634,
603,
609,
549,
544,
557,
530,
501,
485,
424,
437,
458,
390,
404,
392,
371,
402,
332,
330,
328,
295,
292,
258,
276,
263,
231,
230,
211,
206,
199,
215,
191,
157,
172,
144,
161,
140,
124,
131,
105,
111,
112,
93,
96,
85,
76,
83,
81,
62,
66,
61,
58,
51,
59,
42,
41,
56,
36,
31,
30,
28,
31,
19,
29,
24,
25,
14,
15,
15,
13,
14,
10,
11,
11,
9,
4,
2,
1,
1,
1,
0,
0,
0,
0,
1,
0,
1,
1,
0,
0,
0,
0,
0,
0,
0,
1,
1,
0,
0,
0,
0,
0,
0,
0,
0,
0,
0,
0,
0,
0,
0,
0,
0,
0,
0,
0,
0,
1,
0,
0,
0,
0,
0,
0,
0,
0,
0,
0,
0,
0,
0,
0,
0,
0,
0,
0,
0,
0,
0,
0,
0,
0,
0,
0,
0,
0,
0,
0,
0,
0,
0,
0,
0,
0,
0,
0,
0,
0,
0,
0,
0,
0,
0,
0,
0,
0,
0,
0,
0,
0,
0,
0,
0,
0,
0,
0,
0,
1,
0,
0,
0,
0,
0,
0,
0,
0,
0,
0,
0,
0,
0,
0,
0,
0,
0,
0,
0,
0,
0,
0,
0,
0,
0,
0,
0,
0,
0,
0,
0,
0,
0,
0,
0,
0,
0,
0,
0,
0,
0,
0,
0,
0,
0,
0,
0,
0,
0,
0,
0,
0,
#ENDOFDATA   :