File: N132962/Quantification/20 keV/MMM2/SPI MM2 Sphene[2][4].msa
#FORMAT      : EMSA/MAS Spectral Data File
#VERSION     : 1.0
#TITLE       : SPI MM2 Sphene[2][all]
#DATE        : 13-MAR-2025
#TIME        : 13:00
#OWNER       : Unknown
#NPOINTS     : 4096
#NCOLUMNS    : 1
#XUNITS      : eV
#YUNITS      : counts
#DATATYPE    : Y
#XPERCHAN    : 9.99778
#OFFSET      : 1.69135
#BEAMKV      : 20
#SIGNALTYPE  : EDS
#ELEVANGLE   : 35
#AZIMANGLE   : 0
#LIVETIME    : 239.843
#REALTIME    : 254.823
#PROBECUR    : 1.02627
#TAUWIND     : 0
#TDEADLYR    : 0
#TACTLYR     : 0.045
#TALWIND     : 0.025
#CHOFFSET    : 0.0
#XLABEL      : Energy (eV)
#YLABEL      : Counts
#XPOSITION   : 6.08369
#YPOSITION   : 3.78803
#ZPOSITION   : 31.03511
#EDSDET      : SD
##SPECIMEN   : SPI MM2 Sphene[2][all]
##DET_HASH   : 12273538-fd48-a23f-0a19-f1e6fa85caef
##CALIB_HASH : 6abaa72c-aa41-8738-0be9-f592914732f3
##WORKING    : 15.0 mm
##DET_NAME   : EDAX All
##DET_MODE   : MediumLE
#SPECTRUM    :
22,
197,
13468,
7658,
21670,
2448,
2425,
2906,
3559,
4138,
4951,
7070,
38510,
19505,
4618,
3549,
3859,
3350,
3328,
3368,
3532,
2961,
2909,
3022,
2717,
3225,
55660,
19764,
4463,
10174,
2094,
2598,
61870,
8153,
2041,
9659,
2896,
1516,
1451,
1553,
1352,
1298,
1352,
1176,
1209,
1476,
1791,
1113,
1083,
1048,
1098,
981,
926,
979,
955,
899,
803,
803,
837,
835,
696,
721,
649,
687,
680,
663,
627,
603,
587,
561,
534,
521,
503,
516,
437,
425,
443,
401,
383,
414,
338,
342,
364,
324,
299,
286,
300,
268,
257,
260,
241,
237,
214,
218,
208,
203,
202,
180,
167,
168,
150,
143,
129,
125,
141,
143,
105,
102,
106,
94,
91,
78,
69,
84,
77,
53,
77,
57,
46,
53,
46,
47,
32,
32,
36,
30,
29,
35,
22,
20,
16,
19,
14,
17,
10,
18,
10,
14,
5,
3,
2,
0,
3,
0,
0,
2,
0,
0,
0,
0,
1,
0,
0,
0,
0,
1,
1,
0,
0,
0,
1,
0,
0,
0,
0,
0,
0,
0,
0,
0,
1,
1,
0,
0,
0,
0,
0,
0,
0,
0,
0,
0,
0,
0,
0,
0,
0,
1,
0,
0,
0,
0,
0,
0,
0,
0,
0,
0,
0,
0,
0,
1,
0,
0,
0,
0,
0,
0,
0,
0,
0,
0,
0,
0,
0,
0,
0,
0,
0,
0,
0,
0,
0,
0,
0,
0,
0,
0,
0,
0,
0,
0,
0,
0,
0,
0,
0,
0,
0,
0,
0,
0,
0,
0,
0,
0,
0,
0,
0,
0,
0,
0,
0,
0,
0,
0,
0,
0,
0,
0,
0,
0,
0,
0,
0,
0,
0,
0,
0,
0,
0,
0,
0,
0,
0,
0,
0,
0,
0,
0,
0,
0,
0,
0,
0,
0,
0,
0,
0,
0,
0,
0,
0,
0,
#ENDOFDATA   :