File: N132962/Quantification/20 keV/MMM2/SPI MM2 SPI Orthoclaise[7][4].msa
#FORMAT      : EMSA/MAS Spectral Data File
#VERSION     : 1.0
#TITLE       : SPI MM2 SPI Orthoclaise[7][all]
#DATE        : 13-MAR-2025
#TIME        : 10:30
#OWNER       : Unknown
#NPOINTS     : 4096
#NCOLUMNS    : 1
#XUNITS      : eV
#YUNITS      : counts
#DATATYPE    : Y
#XPERCHAN    : 9.99778
#OFFSET      : 1.69135
#BEAMKV      : 20
#SIGNALTYPE  : EDS
#ELEVANGLE   : 35
#AZIMANGLE   : 0
#LIVETIME    : 239.868
#REALTIME    : 255.976
#PROBECUR    : 1.02606
#TAUWIND     : 0
#TDEADLYR    : 0
#TACTLYR     : 0.045
#TALWIND     : 0.025
#CHOFFSET    : 0.0
#XLABEL      : Energy (eV)
#YLABEL      : Counts
#XPOSITION   : 6.17364
#YPOSITION   : 0.07022
#ZPOSITION   : 31.0351
#EDSDET      : SD
##SPECIMEN   : SPI MM2 SPI Orthoclaise[7][all]
##D2STDCMP   : SPI Orthoclaise,(O:45.86),(Na:0.67),(Al:8.85),(Si:30.29),(K:12.85),(Fe:1.4),(Ba:0.04),5.0
##DET_HASH   : 12273538-fd48-a23f-0a19-f1e6fa85caef
##CALIB_HASH : 6abaa72c-aa41-8738-0be9-f592914732f3
##WORKING    : 15.0 mm
##DET_NAME   : EDAX All
##DET_MODE   : MediumLE
#SPECTRUM    :
26,
188,
9410,
4393,
42076,
3675,
2579,
3415,
3845,
4408,
9281,
30263,
73755,
34768,
2517,
2504,
2975,
2571,
2371,
2496,
2382,
2331,
2349,
10027,
41009,
3768,
6334,
1858,
1719,
1665,
1593,
1544,
1546,
1492,
1505,
1356,
1491,
1301,
1301,
1261,
1123,
1177,
1036,
1044,
1109,
1854,
3760,
985,
979,
890,
1154,
945,
813,
812,
774,
753,
718,
687,
670,
603,
588,
588,
551,
600,
543,
501,
507,
512,
437,
473,
465,
423,
399,
381,
364,
322,
354,
379,
311,
329,
282,
305,
288,
254,
263,
240,
232,
232,
228,
200,
180,
199,
178,
171,
174,
123,
161,
135,
122,
155,
130,
123,
118,
105,
97,
103,
70,
92,
73,
65,
69,
56,
58,
45,
53,
51,
34,
63,
36,
24,
45,
31,
32,
20,
24,
23,
25,
26,
14,
18,
11,
16,
9,
3,
12,
8,
12,
8,
4,
3,
2,
3,
1,
0,
0,
1,
0,
0,
0,
1,
0,
0,
1,
1,
0,
0,
0,
0,
0,
0,
0,
0,
0,
0,
0,
0,
0,
0,
0,
0,
0,
0,
0,
0,
0,
0,
0,
0,
0,
0,
0,
0,
0,
0,
0,
0,
0,
0,
0,
1,
0,
0,
0,
0,
0,
0,
0,
0,
0,
0,
0,
0,
0,
0,
0,
0,
0,
0,
0,
0,
0,
0,
0,
0,
0,
0,
0,
0,
0,
0,
0,
0,
0,
0,
0,
0,
0,
0,
0,
0,
0,
0,
0,
0,
0,
0,
0,
0,
0,
0,
0,
0,
0,
0,
0,
0,
0,
0,
0,
0,
0,
0,
0,
0,
0,
0,
0,
0,
0,
0,
0,
0,
0,
0,
0,
0,
0,
0,
0,
0,
0,
0,
0,
0,
0,
0,
0,
0,
0,
0,
0,
0,
0,
0,
0,
0,
0,
0,
0,
0,
0,
0,
0,
0,
#ENDOFDATA   :