File: N132962/Quantification/20 keV/MMM2/SPI MM2 SPI Plagioclase[0][4].msa
#FORMAT      : EMSA/MAS Spectral Data File
#VERSION     : 1.0
#TITLE       : SPI MM2 SPI Plagioclase[0][all]
#DATE        : 13-MAR-2025
#TIME        : 10:50
#OWNER       : Unknown
#NPOINTS     : 4096
#NCOLUMNS    : 1
#XUNITS      : eV
#YUNITS      : counts
#DATATYPE    : Y
#XPERCHAN    : 9.99778
#OFFSET      : 1.69135
#BEAMKV      : 20
#SIGNALTYPE  : EDS
#ELEVANGLE   : 35
#AZIMANGLE   : 0
#LIVETIME    : 239.832
#REALTIME    : 255.4026
#PROBECUR    : 1.02609
#TAUWIND     : 0
#TDEADLYR    : 0
#TACTLYR     : 0.045
#TALWIND     : 0.025
#CHOFFSET    : 0.0
#XLABEL      : Energy (eV)
#YLABEL      : Counts
#XPOSITION   : -1.32587
#YPOSITION   : -0.24655
#ZPOSITION   : 31.03511
#EDSDET      : SD
##SPECIMEN   : SPI MM2 SPI Plagioclase[0][all]
##D2STDCMP   : SPI Plagioclase,(O:46.79),(Na:3.24),(Al:15.54),(Si:24.83),(K:0.2),(Ca:8.53),(Fe:0.27)
##DET_HASH   : 12273538-fd48-a23f-0a19-f1e6fa85caef
##CALIB_HASH : 6abaa72c-aa41-8738-0be9-f592914732f3
##WORKING    : 15.0 mm
##DET_NAME   : EDAX All
##DET_MODE   : MediumLE
#SPECTRUM    :
33,
171,
9489,
4988,
48191,
2363,
2693,
7013,
4413,
4582,
12799,
48164,
55044,
26433,
2910,
2364,
2734,
2383,
2413,
2407,
2293,
2281,
2184,
2711,
3048,
2388,
22574,
8411,
2593,
4880,
1713,
1518,
1617,
1486,
1369,
1378,
1304,
1289,
1268,
1309,
1156,
1069,
1114,
1003,
995,
1120,
1391,
874,
847,
863,
854,
831,
764,
751,
702,
675,
680,
641,
633,
582,
562,
570,
562,
501,
508,
514,
503,
407,
444,
429,
429,
414,
404,
353,
360,
300,
317,
322,
301,
287,
265,
283,
275,
259,
246,
210,
191,
195,
219,
213,
186,
167,
170,
157,
143,
149,
144,
122,
128,
99,
119,
101,
110,
109,
98,
77,
93,
76,
82,
67,
73,
66,
60,
42,
58,
41,
45,
35,
37,
38,
44,
27,
32,
20,
25,
18,
10,
14,
19,
13,
18,
10,
8,
5,
7,
9,
5,
5,
3,
0,
7,
2,
4,
0,
1,
0,
0,
1,
0,
0,
0,
0,
0,
0,
0,
0,
0,
0,
0,
1,
0,
0,
0,
0,
0,
0,
0,
0,
0,
0,
0,
0,
0,
0,
0,
0,
0,
0,
0,
0,
0,
0,
0,
0,
0,
0,
0,
0,
0,
0,
0,
0,
0,
0,
0,
0,
0,
0,
0,
0,
0,
0,
0,
0,
0,
1,
0,
0,
0,
0,
0,
0,
0,
0,
0,
0,
0,
0,
0,
0,
0,
0,
0,
0,
0,
0,
0,
0,
0,
0,
0,
0,
0,
0,
0,
0,
0,
0,
0,
0,
0,
0,
0,
0,
0,
0,
0,
0,
0,
0,
0,
0,
0,
0,
0,
0,
0,
0,
0,
0,
0,
0,
0,
0,
0,
0,
0,
0,
0,
0,
0,
0,
0,
0,
0,
0,
0,
0,
0,
0,
0,
0,
0,
0,
0,
0,
0,
0,
0,
0,
0,
0,
0,
0,
#ENDOFDATA   :