File: N132962/Quantification/20 keV/MMM2/SPI MM2 SPI Mangotantalite[1][4].msa
#FORMAT      : EMSA/MAS Spectral Data File
#VERSION     : 1.0
#TITLE       : SPI MM2 SPI Mangotantalite[1][all]
#DATE        : 13-MAR-2025
#TIME        : 09:37
#OWNER       : Unknown
#NPOINTS     : 4096
#NCOLUMNS    : 1
#XUNITS      : eV
#YUNITS      : counts
#DATATYPE    : Y
#XPERCHAN    : 9.99778
#OFFSET      : 1.69135
#BEAMKV      : 20
#SIGNALTYPE  : EDS
#ELEVANGLE   : 35
#AZIMANGLE   : 0
#LIVETIME    : 239.8594
#REALTIME    : 262.063
#PROBECUR    : 1.02582
#TAUWIND     : 0
#TDEADLYR    : 0
#TACTLYR     : 0.045
#TALWIND     : 0.025
#CHOFFSET    : 0.0
#XLABEL      : Energy (eV)
#YLABEL      : Counts
#XPOSITION   : -1.70386
#YPOSITION   : -4.64235
#ZPOSITION   : 31.03509
#EDSDET      : SD
##SPECIMEN   : SPI MM2 SPI Mangotantalite[1][all]
##DET_HASH   : 12273538-fd48-a23f-0a19-f1e6fa85caef
##CALIB_HASH : 6abaa72c-aa41-8738-0be9-f592914732f3
##WORKING    : 15.0 mm
##DET_NAME   : EDAX All
##DET_MODE   : MediumLE
#SPECTRUM    :
23,
695,
14753,
6186,
25298,
7930,
5708,
6477,
7212,
10376,
11238,
10094,
140132,
29925,
10130,
12045,
18577,
6449,
4657,
4939,
4641,
4621,
4871,
4824,
4929,
4906,
4754,
4755,
4834,
4677,
4596,
4604,
5463,
4445,
4288,
4317,
4183,
4150,
4047,
3908,
3721,
4542,
27725,
5542,
3525,
4532,
9203,
4038,
3016,
2951,
3366,
4025,
3112,
2905,
2746,
2613,
2637,
4189,
26812,
6944,
2566,
2313,
2166,
2122,
2015,
2411,
6083,
9769,
4305,
5967,
2241,
1754,
1540,
1498,
1496,
1506,
1426,
1901,
2694,
1488,
1626,
1326,
1182,
1218,
1075,
1014,
943,
959,
982,
912,
854,
888,
792,
763,
778,
722,
647,
661,
679,
623,
593,
591,
555,
524,
483,
460,
469,
430,
378,
362,
370,
375,
318,
289,
258,
270,
273,
234,
254,
250,
203,
205,
193,
162,
163,
130,
141,
138,
123,
88,
94,
88,
85,
81,
68,
49,
42,
33,
40,
29,
21,
19,
11,
3,
3,
6,
2,
3,
2,
4,
2,
4,
0,
3,
2,
1,
2,
3,
0,
2,
1,
3,
2,
1,
0,
1,
0,
0,
1,
2,
1,
1,
0,
0,
1,
1,
1,
0,
0,
0,
0,
0,
1,
0,
0,
1,
1,
0,
0,
0,
0,
0,
0,
0,
1,
0,
1,
1,
0,
1,
0,
0,
0,
0,
1,
0,
0,
0,
0,
0,
0,
0,
0,
0,
0,
0,
0,
0,
0,
0,
0,
0,
0,
0,
0,
0,
0,
1,
0,
0,
0,
0,
0,
0,
0,
0,
0,
0,
0,
0,
0,
0,
0,
0,
0,
0,
0,
0,
0,
0,
0,
0,
0,
0,
0,
0,
0,
0,
0,
0,
0,
0,
0,
0,
0,
0,
0,
0,
0,
0,
0,
0,
0,
0,
0,
0,
0,
0,
0,
0,
0,
0,
0,
0,
0,
0,
0,
0,
0,
0,
0,
0,
0,
0,
#ENDOFDATA   :