File: N132962/Quantification/20 keV/MMM2/SPI MM2 Stibnite[7][4].msa
#FORMAT      : EMSA/MAS Spectral Data File
#VERSION     : 1.0
#TITLE       : SPI MM2 Stibnite[7][all]
#DATE        : 13-MAR-2025
#TIME        : 13:24
#OWNER       : Unknown
#NPOINTS     : 4096
#NCOLUMNS    : 1
#XUNITS      : eV
#YUNITS      : counts
#DATATYPE    : Y
#XPERCHAN    : 9.99778
#OFFSET      : 1.69135
#BEAMKV      : 20
#SIGNALTYPE  : EDS
#ELEVANGLE   : 35
#AZIMANGLE   : 0
#LIVETIME    : 239.942
#REALTIME    : 263.273
#PROBECUR    : 1.0263
#TAUWIND     : 0
#TDEADLYR    : 0
#TACTLYR     : 0.045
#TALWIND     : 0.025
#CHOFFSET    : 0.0
#XLABEL      : Energy (eV)
#YLABEL      : Counts
#XPOSITION   : 1.54233
#YPOSITION   : 4.43003
#ZPOSITION   : 31.03511
#EDSDET      : SD
##SPECIMEN   : SPI MM2 Stibnite[7][all]
##DET_HASH   : 12273538-fd48-a23f-0a19-f1e6fa85caef
##CALIB_HASH : 6abaa72c-aa41-8738-0be9-f592914732f3
##WORKING    : 15.0 mm
##DET_NAME   : EDAX All
##DET_MODE   : MediumLE
#SPECTRUM    :
27,
1974,
15171,
16550,
9621,
5455,
4741,
4655,
5289,
5848,
6778,
7204,
7965,
8986,
7451,
8392,
59801,
47594,
11769,
5510,
5611,
5524,
5718,
9314,
5953,
17409,
104931,
28053,
39561,
17504,
7221,
10086,
4013,
6386,
3297,
3097,
3230,
3139,
3078,
3124,
2996,
2969,
3167,
2971,
3046,
2887,
3137,
2662,
2562,
2668,
2606,
2494,
2404,
2591,
2400,
2161,
2233,
2106,
1998,
2156,
1952,
1962,
1929,
1881,
1788,
1689,
1677,
1609,
1597,
1539,
1624,
1519,
1486,
1436,
1376,
1343,
1305,
1234,
1241,
1153,
1141,
1067,
1071,
1004,
1053,
890,
896,
794,
842,
851,
762,
730,
744,
676,
657,
640,
640,
615,
576,
585,
522,
465,
473,
435,
423,
393,
370,
362,
344,
301,
306,
310,
279,
259,
264,
225,
254,
191,
219,
181,
163,
179,
161,
183,
114,
151,
103,
108,
103,
95,
76,
67,
62,
59,
42,
46,
45,
37,
33,
24,
22,
10,
2,
5,
5,
2,
3,
1,
3,
2,
0,
1,
1,
0,
0,
4,
1,
1,
0,
0,
0,
0,
1,
1,
1,
2,
0,
0,
0,
1,
0,
1,
0,
0,
0,
0,
0,
0,
0,
1,
1,
0,
0,
0,
0,
0,
1,
0,
0,
0,
0,
0,
2,
0,
0,
0,
0,
1,
0,
0,
0,
0,
0,
0,
0,
0,
0,
0,
0,
0,
0,
0,
1,
0,
0,
0,
0,
0,
0,
0,
0,
0,
0,
0,
0,
0,
0,
0,
0,
0,
0,
0,
0,
0,
0,
0,
0,
0,
0,
0,
0,
0,
0,
0,
0,
0,
0,
0,
0,
0,
0,
0,
0,
0,
0,
0,
0,
0,
0,
0,
0,
0,
0,
0,
0,
0,
0,
0,
0,
0,
0,
0,
0,
0,
0,
0,
0,
0,
0,
0,
0,
0,
0,
0,
0,
0,
0,
0,
0,
0,
0,
0,
0,
0,
#ENDOFDATA   :