File: N132962/Quantification/20 keV/MMM2/SPI MM2 Pyrope[6][4].msa
#FORMAT      : EMSA/MAS Spectral Data File
#VERSION     : 1.0
#TITLE       : SPI MM2 Pyrope[6][all]
#DATE        : 13-MAR-2025
#TIME        : 12:46
#OWNER       : Unknown
#NPOINTS     : 4096
#NCOLUMNS    : 1
#XUNITS      : eV
#YUNITS      : counts
#DATATYPE    : Y
#XPERCHAN    : 9.99778
#OFFSET      : 1.69135
#BEAMKV      : 20
#SIGNALTYPE  : EDS
#ELEVANGLE   : 35
#AZIMANGLE   : 0
#LIVETIME    : 239.94
#REALTIME    : 255.2137
#PROBECUR    : 1.02627
#TAUWIND     : 0
#TDEADLYR    : 0
#TACTLYR     : 0.045
#TALWIND     : 0.025
#CHOFFSET    : 0.0
#XLABEL      : Energy (eV)
#YLABEL      : Counts
#XPOSITION   : 4.62814
#YPOSITION   : 1.51574
#ZPOSITION   : 31.03511
#EDSDET      : SD
##SPECIMEN   : SPI MM2 Pyrope[6][all]
##D2STDCMP   : Pyrope,(O:47.6258),(Mg:18.0873),(Al:13.3861),(Si:20.9007),5.0
##DET_HASH   : 12273538-fd48-a23f-0a19-f1e6fa85caef
##CALIB_HASH : 6abaa72c-aa41-8738-0be9-f592914732f3
##WORKING    : 15.0 mm
##DET_NAME   : EDAX All
##DET_MODE   : MediumLE
#SPECTRUM    :
26,
187,
9338,
6049,
58407,
7352,
2639,
3197,
4468,
95063,
8445,
30552,
41434,
19915,
2645,
2400,
2691,
2476,
2434,
2452,
2403,
2368,
2339,
2420,
2158,
2295,
9343,
4361,
2211,
2992,
1777,
1625,
2471,
1693,
1483,
1583,
1469,
1386,
1776,
2656,
1251,
1238,
1835,
1189,
1090,
3990,
10305,
1082,
905,
942,
1957,
1280,
787,
786,
782,
756,
739,
695,
638,
623,
578,
572,
565,
535,
501,
528,
502,
474,
474,
417,
476,
426,
383,
379,
409,
359,
349,
296,
310,
287,
306,
272,
299,
252,
258,
216,
222,
215,
214,
179,
208,
177,
176,
163,
176,
169,
159,
123,
137,
121,
111,
132,
114,
102,
102,
82,
82,
94,
71,
73,
75,
68,
61,
63,
54,
46,
44,
49,
45,
41,
33,
34,
35,
25,
32,
17,
19,
22,
16,
17,
18,
12,
10,
6,
8,
10,
5,
6,
3,
4,
0,
2,
1,
1,
0,
0,
0,
0,
0,
0,
0,
0,
0,
0,
0,
0,
0,
0,
0,
0,
0,
0,
0,
0,
0,
0,
0,
0,
0,
0,
0,
0,
0,
0,
0,
0,
0,
0,
0,
0,
0,
0,
0,
0,
0,
0,
0,
0,
0,
0,
0,
0,
0,
0,
0,
0,
0,
0,
0,
0,
0,
0,
0,
0,
0,
0,
0,
0,
0,
0,
0,
0,
0,
0,
0,
0,
0,
0,
0,
0,
0,
0,
0,
0,
0,
0,
0,
0,
0,
0,
0,
0,
0,
0,
0,
0,
0,
0,
0,
0,
0,
0,
0,
0,
0,
0,
0,
0,
0,
0,
0,
0,
0,
0,
0,
0,
0,
0,
0,
0,
0,
0,
0,
0,
0,
0,
0,
0,
0,
0,
0,
0,
0,
0,
0,
0,
0,
0,
0,
0,
0,
0,
0,
0,
0,
0,
0,
0,
0,
0,
0,
0,
0,
0,
#ENDOFDATA   :