File: N132962/Quantification/20 keV/MMM2/SPI MM2 Uvarovite[5][4].msa
#FORMAT      : EMSA/MAS Spectral Data File
#VERSION     : 1.0
#TITLE       : SPI MM2 Uvarovite[5][all]
#DATE        : 13-MAR-2025
#TIME        : 14:17
#OWNER       : Unknown
#NPOINTS     : 4096
#NCOLUMNS    : 1
#XUNITS      : eV
#YUNITS      : counts
#DATATYPE    : Y
#XPERCHAN    : 9.99778
#OFFSET      : 1.69135
#BEAMKV      : 20
#SIGNALTYPE  : EDS
#ELEVANGLE   : 35
#AZIMANGLE   : 0
#LIVETIME    : 239.891
#REALTIME    : 255.409
#PROBECUR    : 1.02609
#TAUWIND     : 0
#TDEADLYR    : 0
#TACTLYR     : 0.045
#TALWIND     : 0.025
#CHOFFSET    : 0.0
#XLABEL      : Energy (eV)
#YLABEL      : Counts
#XPOSITION   : 5.8138
#YPOSITION   : 6.39463
#ZPOSITION   : 31.03511
#EDSDET      : SD
##SPECIMEN   : SPI MM2 Uvarovite[5][all]
##DET_HASH   : 12273538-fd48-a23f-0a19-f1e6fa85caef
##CALIB_HASH : 6abaa72c-aa41-8738-0be9-f592914732f3
##WORKING    : 15.0 mm
##DET_NAME   : EDAX All
##DET_MODE   : MediumLE
#SPECTRUM    :
21,
191,
13374,
4158,
32437,
2698,
2424,
3055,
3548,
4304,
6106,
13417,
44279,
21678,
4362,
3313,
3573,
3249,
3210,
3066,
3053,
3063,
2748,
2812,
2673,
3356,
63882,
22347,
4925,
11355,
2006,
1811,
3920,
2002,
1726,
2328,
1779,
1677,
8742,
22409,
1572,
1483,
3444,
2818,
1215,
1574,
2536,
1085,
1033,
1060,
1130,
1086,
947,
1041,
940,
864,
825,
780,
775,
724,
702,
702,
654,
663,
668,
648,
604,
665,
567,
529,
526,
557,
518,
503,
451,
449,
429,
428,
389,
366,
373,
379,
320,
319,
338,
281,
273,
262,
257,
268,
239,
232,
212,
207,
198,
198,
190,
167,
142,
169,
169,
143,
140,
106,
116,
110,
100,
111,
102,
101,
88,
90,
93,
75,
73,
79,
66,
60,
59,
46,
42,
45,
29,
34,
31,
32,
20,
31,
29,
16,
14,
16,
12,
16,
13,
11,
7,
12,
2,
5,
2,
3,
0,
1,
1,
0,
0,
0,
0,
0,
0,
1,
0,
0,
0,
0,
0,
0,
0,
0,
0,
0,
0,
0,
0,
0,
1,
0,
0,
0,
0,
0,
0,
0,
0,
0,
0,
0,
0,
0,
0,
0,
0,
0,
0,
0,
0,
0,
0,
0,
0,
0,
0,
0,
0,
0,
0,
0,
0,
0,
0,
0,
0,
0,
0,
0,
0,
0,
0,
0,
0,
0,
0,
0,
0,
0,
0,
0,
0,
0,
0,
0,
0,
0,
0,
0,
0,
0,
0,
0,
0,
0,
0,
0,
0,
0,
0,
0,
0,
0,
0,
0,
0,
0,
0,
0,
0,
0,
0,
0,
0,
0,
0,
0,
0,
0,
0,
0,
0,
0,
0,
0,
0,
0,
0,
0,
0,
0,
0,
0,
0,
0,
0,
0,
0,
0,
0,
0,
0,
0,
0,
0,
0,
0,
0,
0,
0,
0,
0,
0,
0,
0,
0,
0,
#ENDOFDATA   :