File: N132962/Quantification/20 keV/MMM2/SPI MM2 SPI Pollucite[5][4].msa
#FORMAT      : EMSA/MAS Spectral Data File
#VERSION     : 1.0
#TITLE       : SPI MM2 SPI Pollucite[5][all]
#DATE        : 13-MAR-2025
#TIME        : 11:05
#OWNER       : Unknown
#NPOINTS     : 4096
#NCOLUMNS    : 1
#XUNITS      : eV
#YUNITS      : counts
#DATATYPE    : Y
#XPERCHAN    : 9.99778
#OFFSET      : 1.69135
#BEAMKV      : 20
#SIGNALTYPE  : EDS
#ELEVANGLE   : 35
#AZIMANGLE   : 0
#LIVETIME    : 239.835
#REALTIME    : 257
#PROBECUR    : 1.02609
#TAUWIND     : 0
#TDEADLYR    : 0
#TACTLYR     : 0.045
#TALWIND     : 0.025
#CHOFFSET    : 0.0
#XLABEL      : Energy (eV)
#YLABEL      : Counts
#XPOSITION   : -4.14169
#YPOSITION   : -1.2004
#ZPOSITION   : 31.0351
#EDSDET      : SD
##SPECIMEN   : SPI MM2 SPI Pollucite[5][all]
##D2STDCMP   : SPI Pollucite,(Li:0.05),(O:35.94),(Na:1.5),(Al:9.06),(Si:22.2),(K:0.05),(Rb:0.17),(Cs:32.3)
##DET_HASH   : 12273538-fd48-a23f-0a19-f1e6fa85caef
##CALIB_HASH : 6abaa72c-aa41-8738-0be9-f592914732f3
##WORKING    : 15.0 mm
##DET_NAME   : EDAX All
##DET_MODE   : MediumLE
#SPECTRUM    :
21,
250,
11353,
7659,
63986,
4941,
3436,
5613,
4009,
4249,
8074,
23048,
45292,
22576,
3740,
3632,
3939,
3689,
4008,
3704,
3715,
3710,
3517,
3593,
3476,
3463,
3204,
4706,
3160,
3167,
13363,
28703,
3435,
24527,
6610,
8188,
3556,
2736,
4420,
2418,
2552,
1961,
1767,
1824,
1708,
1794,
1796,
1626,
1502,
1488,
1447,
1381,
1353,
1353,
1338,
1309,
1227,
1302,
1210,
1146,
1141,
1052,
1073,
1013,
948,
992,
935,
894,
911,
869,
821,
807,
709,
770,
734,
726,
676,
649,
638,
597,
616,
572,
615,
505,
519,
509,
492,
446,
470,
441,
395,
392,
398,
373,
356,
372,
290,
292,
248,
266,
260,
250,
247,
228,
209,
176,
174,
208,
152,
168,
141,
166,
146,
120,
154,
86,
103,
125,
102,
98,
84,
88,
67,
71,
63,
58,
51,
33,
55,
24,
42,
24,
28,
24,
26,
19,
14,
18,
7,
7,
8,
2,
1,
2,
1,
0,
2,
0,
1,
1,
2,
0,
0,
1,
0,
0,
1,
0,
0,
0,
1,
0,
0,
0,
1,
0,
0,
0,
0,
0,
0,
0,
0,
0,
0,
0,
0,
0,
0,
1,
0,
0,
1,
0,
0,
0,
0,
0,
0,
0,
0,
0,
0,
0,
0,
0,
0,
0,
0,
0,
0,
0,
0,
0,
0,
0,
0,
0,
0,
0,
0,
0,
0,
0,
0,
0,
0,
0,
0,
0,
0,
0,
0,
0,
0,
0,
0,
0,
0,
0,
0,
0,
0,
0,
0,
0,
0,
0,
0,
0,
0,
0,
0,
0,
0,
0,
0,
0,
0,
0,
0,
0,
0,
0,
0,
0,
0,
0,
0,
0,
0,
0,
0,
0,
0,
0,
0,
0,
0,
0,
0,
0,
0,
0,
0,
0,
0,
0,
0,
0,
0,
0,
0,
0,
0,
0,
0,
0,
0,
0,
0,
0,
0,
0,
#ENDOFDATA   :