File: N132962/Quantification/20 keV/MMM2/SPI MM2 Rhodonite[2][4].msa
#FORMAT      : EMSA/MAS Spectral Data File
#VERSION     : 1.0
#TITLE       : SPI MM2 Rhodonite[2][all]
#DATE        : 13-MAR-2025
#TIME        : 12:23
#OWNER       : Unknown
#NPOINTS     : 4096
#NCOLUMNS    : 1
#XUNITS      : eV
#YUNITS      : counts
#DATATYPE    : Y
#XPERCHAN    : 9.99778
#OFFSET      : 1.69135
#BEAMKV      : 20
#SIGNALTYPE  : EDS
#ELEVANGLE   : 35
#AZIMANGLE   : 0
#LIVETIME    : 239.829
#REALTIME    : 256.233
#PROBECUR    : 1.02616
#TAUWIND     : 0
#TDEADLYR    : 0
#TACTLYR     : 0.045
#TALWIND     : 0.025
#CHOFFSET    : 0.0
#XLABEL      : Energy (eV)
#YLABEL      : Counts
#XPOSITION   : 0.01874
#YPOSITION   : 1.2333
#ZPOSITION   : 31.03511
#EDSDET      : SD
##SPECIMEN   : SPI MM2 Rhodonite[2][all]
##DET_HASH   : 12273538-fd48-a23f-0a19-f1e6fa85caef
##CALIB_HASH : 6abaa72c-aa41-8738-0be9-f592914732f3
##WORKING    : 15.0 mm
##DET_NAME   : EDAX All
##DET_MODE   : MediumLE
#SPECTRUM    :
21,
211,
10803,
6764,
61993,
5911,
2351,
2825,
3269,
10156,
4205,
5013,
53062,
25726,
3275,
3230,
3672,
3361,
3212,
3145,
3119,
3022,
2926,
2841,
2861,
2988,
11041,
5157,
2800,
3704,
2421,
2191,
2058,
2066,
2009,
1887,
1838,
1766,
1768,
1691,
1718,
3501,
70544,
7202,
1551,
3186,
13208,
3728,
1099,
1061,
1585,
1314,
951,
1048,
996,
1014,
912,
860,
856,
835,
827,
768,
737,
746,
677,
682,
672,
640,
633,
627,
606,
611,
552,
498,
462,
467,
519,
460,
445,
386,
404,
378,
353,
404,
359,
327,
300,
341,
287,
294,
238,
261,
235,
258,
252,
234,
198,
192,
176,
181,
162,
174,
141,
173,
151,
121,
136,
114,
111,
99,
80,
94,
87,
72,
64,
59,
74,
77,
63,
51,
53,
56,
35,
47,
38,
37,
39,
24,
20,
24,
14,
18,
15,
21,
17,
12,
9,
5,
7,
5,
2,
3,
1,
1,
0,
2,
1,
0,
0,
0,
0,
0,
0,
0,
1,
0,
0,
0,
0,
0,
0,
1,
1,
0,
0,
0,
0,
0,
0,
0,
0,
1,
0,
0,
0,
0,
0,
0,
0,
0,
0,
0,
1,
0,
0,
0,
0,
0,
0,
1,
0,
0,
0,
0,
0,
0,
0,
0,
0,
0,
0,
0,
0,
0,
0,
0,
0,
0,
0,
0,
0,
0,
0,
0,
0,
0,
0,
0,
0,
0,
0,
0,
0,
0,
0,
0,
0,
0,
0,
0,
0,
0,
0,
0,
0,
0,
0,
0,
0,
0,
0,
0,
0,
0,
0,
0,
0,
0,
0,
0,
0,
0,
0,
0,
0,
0,
0,
0,
0,
0,
0,
0,
0,
0,
0,
0,
0,
0,
0,
0,
0,
0,
0,
0,
0,
0,
0,
0,
0,
0,
0,
0,
0,
0,
0,
0,
0,
0,
0,
0,
0,
0,
0,
0,
#ENDOFDATA   :