File: N132962/Quantification/20 keV/MMM2/SPI MM2 SPI Phlogpite[5][4].msa
#FORMAT      : EMSA/MAS Spectral Data File
#VERSION     : 1.0
#TITLE       : SPI MM2 SPI Phlogpite[5][all]
#DATE        : 13-MAR-2025
#TIME        : 10:47
#OWNER       : Unknown
#NPOINTS     : 4096
#NCOLUMNS    : 1
#XUNITS      : eV
#YUNITS      : counts
#DATATYPE    : Y
#XPERCHAN    : 9.99778
#OFFSET      : 1.69135
#BEAMKV      : 20
#SIGNALTYPE  : EDS
#ELEVANGLE   : 35
#AZIMANGLE   : 0
#LIVETIME    : 239.828
#REALTIME    : 254.694
#PROBECUR    : 1.02606
#TAUWIND     : 0
#TDEADLYR    : 0
#TACTLYR     : 0.045
#TALWIND     : 0.025
#CHOFFSET    : 0.0
#XLABEL      : Energy (eV)
#YLABEL      : Counts
#XPOSITION   : 1.45351
#YPOSITION   : -0.53983
#ZPOSITION   : 31.0351
#EDSDET      : SD
##SPECIMEN   : SPI MM2 SPI Phlogpite[5][all]
##D2STDCMP   : SPI Phlogpite,(H:0.48),(O:46.01),(Mg:17.47),(Al:6.47),(Si:20.19),(K:9.37)
##DET_HASH   : 12273538-fd48-a23f-0a19-f1e6fa85caef
##CALIB_HASH : 6abaa72c-aa41-8738-0be9-f592914732f3
##WORKING    : 15.0 mm
##DET_NAME   : EDAX All
##DET_MODE   : MediumLE
#SPECTRUM    :
23,
199,
10471,
5439,
50839,
7301,
2737,
3990,
4620,
108595,
6314,
19620,
40714,
19953,
2461,
2451,
2768,
2444,
2541,
2471,
2337,
2378,
2348,
6624,
24518,
2902,
4519,
1878,
1768,
1700,
1666,
1616,
2672,
1633,
1718,
1724,
1426,
1336,
1315,
1190,
1226,
1139,
1362,
1171,
1024,
3166,
7952,
1023,
917,
927,
1639,
1293,
764,
810,
785,
720,
673,
652,
651,
619,
560,
606,
549,
524,
506,
480,
491,
416,
436,
467,
391,
410,
389,
389,
351,
346,
346,
309,
304,
326,
278,
278,
301,
241,
220,
252,
225,
212,
204,
177,
152,
206,
166,
151,
163,
138,
133,
147,
128,
110,
101,
115,
106,
96,
90,
85,
75,
69,
80,
58,
78,
48,
67,
40,
48,
49,
35,
37,
38,
37,
32,
37,
45,
38,
28,
26,
19,
19,
16,
19,
14,
8,
13,
6,
12,
9,
7,
4,
5,
4,
2,
1,
1,
1,
0,
0,
1,
0,
0,
0,
0,
0,
0,
0,
0,
0,
0,
0,
0,
0,
0,
0,
0,
0,
0,
0,
0,
0,
0,
0,
0,
0,
0,
0,
0,
0,
0,
0,
0,
0,
0,
0,
0,
0,
0,
0,
0,
0,
0,
0,
0,
0,
0,
0,
0,
0,
0,
0,
0,
0,
0,
0,
0,
0,
0,
0,
0,
0,
0,
0,
0,
0,
0,
0,
0,
0,
0,
0,
0,
0,
0,
0,
0,
0,
0,
0,
0,
0,
0,
0,
0,
0,
0,
0,
0,
0,
0,
0,
0,
0,
0,
0,
0,
0,
0,
0,
0,
0,
0,
0,
0,
0,
0,
0,
0,
0,
0,
0,
0,
0,
0,
0,
0,
0,
0,
0,
0,
0,
0,
0,
0,
0,
0,
0,
0,
0,
0,
0,
0,
0,
0,
0,
0,
0,
0,
0,
0,
0,
0,
0,
0,
0,
0,
0,
#ENDOFDATA   :