File: N132962/Quantification/20 keV/MMM2/SPI MM2 Rhodonite[4][4].msa
#FORMAT      : EMSA/MAS Spectral Data File
#VERSION     : 1.0
#TITLE       : SPI MM2 Rhodonite[4][all]
#DATE        : 13-MAR-2025
#TIME        : 12:26
#OWNER       : Unknown
#NPOINTS     : 4096
#NCOLUMNS    : 1
#XUNITS      : eV
#YUNITS      : counts
#DATATYPE    : Y
#XPERCHAN    : 9.99778
#OFFSET      : 1.69135
#BEAMKV      : 20
#SIGNALTYPE  : EDS
#ELEVANGLE   : 35
#AZIMANGLE   : 0
#LIVETIME    : 239.755
#REALTIME    : 256.226
#PROBECUR    : 1.02616
#TAUWIND     : 0
#TDEADLYR    : 0
#TACTLYR     : 0.045
#TALWIND     : 0.025
#CHOFFSET    : 0.0
#XLABEL      : Energy (eV)
#YLABEL      : Counts
#XPOSITION   : 0.02909
#YPOSITION   : 1.24637
#ZPOSITION   : 31.03511
#EDSDET      : SD
##SPECIMEN   : SPI MM2 Rhodonite[4][all]
##DET_HASH   : 12273538-fd48-a23f-0a19-f1e6fa85caef
##CALIB_HASH : 6abaa72c-aa41-8738-0be9-f592914732f3
##WORKING    : 15.0 mm
##DET_NAME   : EDAX All
##DET_MODE   : MediumLE
#SPECTRUM    :
23,
229,
10992,
7065,
63117,
5997,
2326,
2825,
3352,
10156,
4276,
5172,
53165,
25780,
3286,
3092,
3693,
3498,
3291,
3184,
3097,
2973,
2942,
2920,
2804,
2893,
10894,
5171,
2696,
3716,
2476,
2164,
2099,
2038,
1968,
1883,
1852,
1899,
1757,
1751,
1731,
3470,
70773,
7224,
1525,
3139,
13004,
3785,
1140,
1113,
1602,
1271,
969,
996,
1063,
1016,
860,
893,
833,
830,
738,
788,
745,
747,
704,
682,
664,
627,
665,
617,
586,
572,
556,
525,
484,
493,
472,
447,
441,
430,
390,
418,
360,
328,
362,
355,
319,
329,
279,
296,
288,
263,
240,
220,
233,
206,
197,
197,
194,
162,
168,
141,
159,
162,
114,
121,
129,
118,
125,
96,
104,
87,
72,
84,
82,
66,
81,
66,
63,
59,
53,
57,
46,
37,
36,
30,
40,
38,
26,
22,
22,
28,
25,
12,
8,
9,
11,
10,
15,
1,
5,
1,
1,
1,
0,
0,
0,
1,
0,
0,
0,
1,
2,
0,
0,
0,
1,
0,
1,
0,
0,
0,
0,
0,
0,
1,
0,
0,
0,
0,
0,
0,
0,
1,
0,
0,
0,
0,
0,
0,
0,
0,
0,
0,
0,
0,
0,
0,
0,
0,
0,
0,
0,
0,
0,
0,
0,
0,
0,
0,
0,
0,
0,
0,
0,
0,
0,
0,
0,
0,
0,
0,
0,
0,
0,
0,
0,
0,
0,
0,
0,
0,
0,
0,
0,
0,
0,
0,
0,
0,
0,
0,
0,
0,
0,
0,
0,
0,
0,
0,
0,
0,
0,
0,
0,
0,
0,
0,
0,
0,
0,
0,
0,
0,
0,
0,
0,
0,
0,
0,
0,
0,
0,
0,
0,
0,
0,
0,
0,
0,
0,
0,
0,
0,
0,
0,
0,
0,
0,
0,
0,
0,
0,
0,
0,
0,
0,
0,
0,
0,
0,
0,
0,
0,
#ENDOFDATA   :