File: N132962/Quantification/20 keV/MMM2/SPI MM2 Pyrite[2][4].msa
#FORMAT      : EMSA/MAS Spectral Data File
#VERSION     : 1.0
#TITLE       : SPI MM2 Pyrite[2][all]
#DATE        : 13-MAR-2025
#TIME        : 12:51
#OWNER       : Unknown
#NPOINTS     : 4096
#NCOLUMNS    : 1
#XUNITS      : eV
#YUNITS      : counts
#DATATYPE    : Y
#XPERCHAN    : 9.99778
#OFFSET      : 1.69135
#BEAMKV      : 20
#SIGNALTYPE  : EDS
#ELEVANGLE   : 35
#AZIMANGLE   : 0
#LIVETIME    : 239.845
#REALTIME    : 262.06
#PROBECUR    : 1.02627
#TAUWIND     : 0
#TDEADLYR    : 0
#TACTLYR     : 0.045
#TALWIND     : 0.025
#CHOFFSET    : 0.0
#XLABEL      : Energy (eV)
#YLABEL      : Counts
#XPOSITION   : 7.83242
#YPOSITION   : 1.95805
#ZPOSITION   : 31.03511
#EDSDET      : SD
##SPECIMEN   : SPI MM2 Pyrite[2][all]
##DET_HASH   : 12273538-fd48-a23f-0a19-f1e6fa85caef
##CALIB_HASH : 6abaa72c-aa41-8738-0be9-f592914732f3
##WORKING    : 15.0 mm
##DET_NAME   : EDAX All
##DET_MODE   : MediumLE
#SPECTRUM    :
33,
737,
10809,
2739,
16683,
62866,
3676,
3612,
4310,
5071,
5554,
5924,
6156,
6565,
6047,
6398,
107459,
82917,
14197,
3189,
3117,
3423,
3341,
3059,
2975,
3085,
3061,
2853,
2908,
2755,
2864,
2589,
2782,
3726,
2668,
2524,
2306,
2237,
2256,
2222,
2046,
2033,
2006,
2063,
2139,
23073,
68558,
2507,
1735,
1923,
9340,
5584,
1347,
1348,
1297,
1216,
1222,
1178,
1134,
1099,
1019,
1092,
1239,
1085,
955,
906,
984,
948,
911,
794,
807,
734,
768,
741,
704,
656,
665,
605,
602,
632,
596,
543,
522,
557,
478,
450,
499,
459,
390,
422,
371,
398,
396,
339,
321,
321,
313,
312,
269,
255,
282,
221,
228,
240,
213,
200,
192,
177,
156,
165,
134,
121,
138,
120,
104,
88,
81,
102,
86,
81,
85,
98,
70,
52,
53,
55,
57,
44,
49,
23,
35,
28,
17,
24,
16,
9,
11,
9,
13,
8,
6,
6,
5,
0,
0,
1,
2,
0,
1,
0,
0,
1,
1,
0,
0,
0,
1,
0,
0,
0,
0,
0,
1,
0,
1,
0,
0,
0,
0,
0,
0,
0,
0,
0,
0,
0,
0,
0,
0,
0,
0,
0,
1,
1,
0,
0,
0,
0,
0,
0,
0,
0,
0,
1,
0,
0,
0,
0,
0,
0,
0,
0,
0,
0,
0,
0,
0,
0,
0,
0,
0,
0,
0,
0,
0,
0,
0,
0,
0,
0,
0,
0,
0,
0,
0,
0,
0,
0,
0,
0,
0,
0,
0,
0,
0,
0,
0,
0,
0,
0,
0,
0,
0,
0,
0,
0,
0,
0,
0,
0,
0,
0,
0,
0,
0,
0,
0,
0,
0,
0,
0,
0,
0,
0,
0,
0,
0,
0,
0,
0,
0,
0,
0,
0,
0,
0,
0,
0,
0,
0,
0,
0,
0,
0,
0,
0,
0,
0,
0,
0,
0,
0,
0,
0,
#ENDOFDATA   :