File: N132962/Quantification/20 keV/MMM2/SPI MM2 Willemite[5][4].msa
#FORMAT      : EMSA/MAS Spectral Data File
#VERSION     : 1.0
#TITLE       : SPI MM2 Willemite[5][all]
#DATE        : 13-MAR-2025
#TIME        : 14:08
#OWNER       : Unknown
#NPOINTS     : 4096
#NCOLUMNS    : 1
#XUNITS      : eV
#YUNITS      : counts
#DATATYPE    : Y
#XPERCHAN    : 9.99778
#OFFSET      : 1.69135
#BEAMKV      : 20
#SIGNALTYPE  : EDS
#ELEVANGLE   : 35
#AZIMANGLE   : 0
#LIVETIME    : 239.799
#REALTIME    : 257.449
#PROBECUR    : 1.02609
#TAUWIND     : 0
#TDEADLYR    : 0
#TACTLYR     : 0.045
#TALWIND     : 0.025
#CHOFFSET    : 0.0
#XLABEL      : Energy (eV)
#YLABEL      : Counts
#XPOSITION   : 2.77165
#YPOSITION   : 6.19037
#ZPOSITION   : 31.03511
#EDSDET      : SD
##SPECIMEN   : SPI MM2 Willemite[5][all]
##DET_HASH   : 12273538-fd48-a23f-0a19-f1e6fa85caef
##CALIB_HASH : 6abaa72c-aa41-8738-0be9-f592914732f3
##WORKING    : 15.0 mm
##DET_NAME   : EDAX All
##DET_MODE   : MediumLE
#SPECTRUM    :
37,
243,
11522,
6059,
43125,
4711,
11443,
138035,
6070,
3689,
3339,
4418,
24914,
13287,
3608,
3657,
3718,
3727,
3693,
3779,
3772,
3739,
3704,
3462,
3452,
3339,
3226,
3103,
2999,
2906,
2829,
2777,
2706,
2635,
2597,
2517,
2446,
2251,
2248,
2141,
2142,
2358,
12170,
2696,
1857,
1903,
2885,
1980,
1655,
1691,
1586,
1435,
1453,
1533,
1386,
1257,
1281,
1272,
1206,
1235,
1520,
20033,
33618,
1748,
1067,
1078,
1067,
1197,
5660,
3265,
826,
727,
757,
718,
705,
655,
628,
614,
587,
612,
536,
565,
523,
510,
467,
439,
438,
417,
410,
409,
392,
350,
308,
339,
318,
315,
298,
261,
231,
234,
263,
223,
244,
232,
201,
195,
183,
172,
156,
150,
154,
128,
130,
104,
116,
113,
117,
91,
95,
102,
82,
73,
82,
70,
61,
58,
53,
33,
39,
39,
47,
21,
24,
26,
19,
20,
13,
10,
14,
12,
10,
2,
2,
0,
1,
0,
0,
0,
0,
1,
1,
1,
0,
1,
0,
0,
0,
1,
0,
0,
1,
0,
1,
1,
0,
0,
0,
2,
0,
1,
0,
0,
0,
1,
0,
4,
0,
2,
0,
0,
0,
0,
0,
0,
0,
0,
0,
0,
0,
0,
0,
0,
0,
0,
0,
0,
0,
0,
0,
0,
0,
0,
0,
0,
0,
0,
0,
0,
0,
0,
0,
0,
0,
0,
0,
0,
0,
0,
0,
0,
0,
0,
0,
0,
0,
0,
0,
0,
0,
0,
0,
0,
0,
0,
0,
0,
0,
0,
0,
0,
0,
0,
0,
0,
0,
0,
0,
0,
0,
0,
0,
0,
0,
0,
0,
0,
0,
0,
0,
0,
0,
0,
0,
0,
0,
0,
0,
0,
0,
0,
0,
0,
0,
0,
0,
0,
0,
0,
0,
0,
0,
0,
0,
0,
0,
0,
0,
0,
0,
0,
0,
0,
0,
0,
#ENDOFDATA   :