File: N132962/Quantification/20 keV/MMM2/SPI MM2 SPI Orthoclaise[0][4].msa
#FORMAT      : EMSA/MAS Spectral Data File
#VERSION     : 1.0
#TITLE       : SPI MM2 SPI Orthoclaise[0][all]
#DATE        : 13-MAR-2025
#TIME        : 10:22
#OWNER       : Unknown
#NPOINTS     : 4096
#NCOLUMNS    : 1
#XUNITS      : eV
#YUNITS      : counts
#DATATYPE    : Y
#XPERCHAN    : 9.99778
#OFFSET      : 1.69135
#BEAMKV      : 20
#SIGNALTYPE  : EDS
#ELEVANGLE   : 35
#AZIMANGLE   : 0
#LIVETIME    : 239.823
#REALTIME    : 255.919
#PROBECUR    : 1.02606
#TAUWIND     : 0
#TDEADLYR    : 0
#TACTLYR     : 0.045
#TALWIND     : 0.025
#CHOFFSET    : 0.0
#XLABEL      : Energy (eV)
#YLABEL      : Counts
#XPOSITION   : 6.16449
#YPOSITION   : 0.1297
#ZPOSITION   : 31.0351
#EDSDET      : SD
##SPECIMEN   : SPI MM2 SPI Orthoclaise[0][all]
##D2STDCMP   : SPI Orthoclaise,(O:45.86),(Na:0.67),(Al:8.85),(Si:30.29),(K:12.85),(Fe:1.4),(Ba:0.04),5.0
##DET_HASH   : 12273538-fd48-a23f-0a19-f1e6fa85caef
##CALIB_HASH : 6abaa72c-aa41-8738-0be9-f592914732f3
##WORKING    : 15.0 mm
##DET_NAME   : EDAX All
##DET_MODE   : MediumLE
#SPECTRUM    :
24,
182,
9345,
4359,
42255,
3667,
2617,
3478,
3849,
4523,
9281,
30176,
73799,
34873,
2567,
2361,
2965,
2489,
2505,
2438,
2490,
2453,
2466,
9983,
41437,
3725,
6195,
1763,
1695,
1665,
1678,
1557,
1586,
1449,
1430,
1367,
1544,
1362,
1277,
1239,
1185,
1183,
1136,
1099,
1032,
1891,
3617,
1001,
946,
919,
1176,
967,
798,
790,
728,
715,
665,
749,
630,
607,
548,
611,
608,
585,
541,
489,
512,
458,
483,
404,
415,
447,
382,
393,
388,
353,
358,
365,
324,
293,
305,
280,
251,
248,
243,
246,
219,
229,
227,
200,
178,
186,
152,
160,
177,
147,
171,
157,
105,
126,
126,
121,
87,
98,
91,
81,
100,
85,
73,
66,
74,
58,
64,
56,
57,
55,
51,
45,
45,
28,
29,
32,
28,
22,
32,
27,
25,
23,
14,
16,
19,
10,
4,
10,
8,
9,
5,
5,
2,
7,
3,
3,
2,
0,
0,
0,
1,
0,
0,
0,
0,
1,
0,
0,
0,
0,
1,
0,
0,
1,
0,
0,
0,
0,
0,
0,
0,
0,
0,
0,
0,
0,
0,
0,
0,
0,
0,
0,
0,
0,
0,
0,
0,
0,
0,
0,
0,
0,
0,
0,
0,
0,
0,
0,
0,
0,
0,
0,
0,
0,
0,
0,
0,
0,
0,
0,
0,
0,
0,
0,
0,
0,
0,
0,
0,
0,
0,
0,
0,
0,
0,
0,
0,
0,
0,
0,
0,
0,
0,
0,
0,
0,
0,
0,
0,
0,
0,
0,
0,
0,
0,
0,
0,
0,
0,
0,
0,
0,
0,
0,
0,
0,
0,
0,
0,
0,
0,
0,
0,
0,
0,
0,
0,
0,
0,
0,
0,
0,
0,
0,
0,
0,
0,
0,
0,
0,
0,
0,
0,
0,
0,
0,
0,
0,
0,
0,
0,
0,
0,
0,
0,
0,
0,
0,
#ENDOFDATA   :