File: N132962/Quantification/20 keV/MMM2/SPI MM2 SPI Molybdenite[6][4].msa
#FORMAT      : EMSA/MAS Spectral Data File
#VERSION     : 1.0
#TITLE       : SPI MM2 SPI Molybdenite[6][all]
#DATE        : 13-MAR-2025
#TIME        : 10:20
#OWNER       : Unknown
#NPOINTS     : 4096
#NCOLUMNS    : 1
#XUNITS      : eV
#YUNITS      : counts
#DATATYPE    : Y
#XPERCHAN    : 9.99778
#OFFSET      : 1.69135
#BEAMKV      : 20
#SIGNALTYPE  : EDS
#ELEVANGLE   : 35
#AZIMANGLE   : 0
#LIVETIME    : 239.349
#REALTIME    : 265.712
#PROBECUR    : 1.02606
#TAUWIND     : 0
#TDEADLYR    : 0
#TACTLYR     : 0.045
#TALWIND     : 0.025
#CHOFFSET    : 0.0
#XLABEL      : Energy (eV)
#YLABEL      : Counts
#XPOSITION   : 5.79096
#YPOSITION   : -3.29739
#ZPOSITION   : 31.0351
#EDSDET      : SD
##SPECIMEN   : SPI MM2 SPI Molybdenite[6][all]
##D2STDCMP   : SPI Molybdenite,(S:39.84),(Mo:59.29),5.0
##DET_HASH   : 12273538-fd48-a23f-0a19-f1e6fa85caef
##CALIB_HASH : 6abaa72c-aa41-8738-0be9-f592914732f3
##WORKING    : 15.0 mm
##DET_NAME   : EDAX All
##DET_MODE   : MediumLE
#SPECTRUM    :
21,
2484,
14913,
2576,
14975,
5814,
5800,
6731,
7478,
7893,
8539,
8992,
9283,
9285,
11925,
12884,
181460,
171002,
24005,
4359,
4063,
3139,
3183,
3185,
3299,
3360,
3452,
3283,
3327,
3381,
3193,
3323,
3281,
4804,
3568,
3091,
2971,
2851,
2878,
2716,
2726,
2573,
2602,
2429,
2404,
2490,
2762,
2213,
2162,
2113,
2105,
2132,
1999,
2005,
1914,
1860,
1735,
1776,
1694,
1666,
1580,
1551,
1572,
1482,
1412,
1455,
1480,
1315,
1264,
1203,
1212,
1236,
1076,
1102,
1146,
1006,
991,
964,
958,
936,
872,
819,
788,
768,
735,
721,
693,
658,
660,
602,
585,
555,
546,
522,
510,
502,
462,
398,
391,
370,
407,
381,
325,
319,
312,
283,
291,
274,
270,
256,
211,
243,
201,
189,
191,
169,
178,
138,
138,
123,
123,
134,
115,
88,
90,
93,
82,
64,
72,
52,
46,
53,
44,
47,
43,
31,
21,
17,
18,
12,
10,
5,
5,
1,
2,
2,
0,
1,
0,
0,
0,
1,
0,
0,
1,
0,
1,
0,
0,
0,
0,
0,
1,
1,
0,
0,
1,
0,
1,
0,
0,
0,
0,
0,
0,
0,
0,
0,
0,
0,
0,
0,
1,
0,
0,
1,
0,
0,
0,
0,
0,
0,
0,
0,
0,
0,
0,
0,
1,
0,
0,
0,
0,
0,
0,
0,
0,
0,
0,
0,
0,
0,
0,
0,
0,
0,
0,
0,
0,
0,
0,
0,
0,
0,
0,
0,
0,
0,
0,
0,
0,
0,
0,
0,
0,
0,
0,
0,
0,
0,
0,
0,
0,
0,
0,
0,
0,
0,
0,
0,
0,
0,
0,
0,
0,
0,
0,
0,
0,
0,
0,
0,
0,
0,
0,
0,
0,
0,
0,
0,
0,
0,
0,
0,
0,
0,
0,
0,
0,
0,
0,
0,
0,
0,
0,
0,
0,
0,
0,
0,
0,
0,
0,
0,
#ENDOFDATA   :