File: N132962/Quantification/20 keV/MMM2/SPI MM2 SPI Olivine[3][4].msa
#FORMAT      : EMSA/MAS Spectral Data File
#VERSION     : 1.0
#TITLE       : SPI MM2 SPI Olivine[3][all]
#DATE        : 13-MAR-2025
#TIME        : 09:49
#OWNER       : Unknown
#NPOINTS     : 4096
#NCOLUMNS    : 1
#XUNITS      : eV
#YUNITS      : counts
#DATATYPE    : Y
#XPERCHAN    : 9.99778
#OFFSET      : 1.69135
#BEAMKV      : 20
#SIGNALTYPE  : EDS
#ELEVANGLE   : 35
#AZIMANGLE   : 0
#LIVETIME    : 239.519
#REALTIME    : 255.605
#PROBECUR    : 1.02627
#TAUWIND     : 0
#TDEADLYR    : 0
#TACTLYR     : 0.045
#TALWIND     : 0.025
#CHOFFSET    : 0.0
#XLABEL      : Energy (eV)
#YLABEL      : Counts
#XPOSITION   : -3.18523
#YPOSITION   : -2.0859
#ZPOSITION   : 31.0351
#EDSDET      : SD
##SPECIMEN   : SPI MM2 SPI Olivine[3][all]
##D2STDCMP   : SPI Olivine,(O:43.96),(Mg:30.26),(Si:19.14),(Mn:0.089),(Fe:6.35),(Ni:0.278),5.0
##DET_HASH   : 12273538-fd48-a23f-0a19-f1e6fa85caef
##CALIB_HASH : 6abaa72c-aa41-8738-0be9-f592914732f3
##WORKING    : 15.0 mm
##DET_NAME   : EDAX All
##DET_MODE   : MediumLE
#SPECTRUM    :
31,
211,
8591,
6679,
67619,
7315,
3177,
3444,
5621,
238659,
2829,
3158,
39367,
19429,
2152,
2230,
2651,
2378,
2629,
2265,
2282,
2392,
2225,
2066,
2050,
1981,
1862,
1889,
1709,
1771,
1650,
1520,
1556,
1531,
1410,
1424,
1311,
1315,
1214,
1270,
1148,
1166,
1264,
1072,
1060,
3662,
9526,
1013,
898,
893,
1906,
1225,
752,
992,
861,
664,
663,
657,
664,
642,
594,
509,
511,
505,
504,
495,
456,
446,
450,
444,
381,
409,
379,
349,
361,
322,
343,
320,
287,
290,
279,
286,
251,
244,
253,
209,
228,
202,
217,
179,
147,
155,
185,
165,
151,
118,
146,
126,
123,
128,
100,
96,
96,
112,
83,
77,
80,
61,
65,
79,
60,
53,
62,
58,
56,
46,
33,
31,
39,
35,
19,
29,
23,
19,
29,
18,
11,
20,
15,
15,
16,
13,
7,
4,
8,
2,
9,
5,
6,
5,
4,
2,
1,
2,
0,
0,
0,
1,
0,
0,
0,
0,
0,
0,
0,
0,
0,
0,
0,
0,
0,
0,
0,
0,
0,
0,
0,
0,
0,
0,
0,
0,
0,
0,
0,
0,
0,
0,
0,
0,
0,
0,
0,
0,
0,
0,
0,
0,
0,
0,
0,
0,
0,
0,
0,
0,
0,
0,
0,
0,
0,
0,
0,
0,
0,
0,
0,
0,
0,
0,
0,
0,
0,
0,
0,
0,
0,
0,
0,
0,
0,
0,
0,
0,
0,
0,
0,
0,
0,
0,
0,
0,
0,
0,
0,
0,
0,
0,
0,
0,
0,
0,
0,
0,
0,
0,
0,
0,
0,
0,
0,
0,
0,
0,
0,
0,
0,
0,
0,
0,
0,
0,
0,
0,
0,
0,
0,
0,
0,
0,
0,
0,
0,
0,
0,
0,
0,
0,
0,
0,
0,
0,
0,
0,
0,
0,
0,
0,
0,
0,
0,
0,
0,
0,
#ENDOFDATA   :