File: N132962/Quantification/20 keV/MMM2/SPI MM2 Spessartine[0][4].msa
#FORMAT      : EMSA/MAS Spectral Data File
#VERSION     : 1.0
#TITLE       : SPI MM2 Spessartine[0][all]
#DATE        : 13-MAR-2025
#TIME        : 12:02
#OWNER       : Unknown
#NPOINTS     : 4096
#NCOLUMNS    : 1
#XUNITS      : eV
#YUNITS      : counts
#DATATYPE    : Y
#XPERCHAN    : 9.99778
#OFFSET      : 1.69135
#BEAMKV      : 20
#SIGNALTYPE  : EDS
#ELEVANGLE   : 35
#AZIMANGLE   : 0
#LIVETIME    : 239.907
#REALTIME    : 256.291
#PROBECUR    : 1.02616
#TAUWIND     : 0
#TDEADLYR    : 0
#TACTLYR     : 0.045
#TALWIND     : 0.025
#CHOFFSET    : 0.0
#XLABEL      : Energy (eV)
#YLABEL      : Counts
#XPOSITION   : -5.81961
#YPOSITION   : 1.52155
#ZPOSITION   : 31.03511
#EDSDET      : SD
##SPECIMEN   : SPI MM2 Spessartine[0][all]
##DET_HASH   : 12273538-fd48-a23f-0a19-f1e6fa85caef
##CALIB_HASH : 6abaa72c-aa41-8738-0be9-f592914732f3
##WORKING    : 15.0 mm
##DET_NAME   : EDAX All
##DET_MODE   : MediumLE
#SPECTRUM    :
19,
213,
9786,
7596,
71937,
5377,
2297,
2830,
3294,
4004,
8996,
30359,
36924,
18404,
3243,
3147,
3378,
3116,
3152,
2980,
3023,
2765,
2824,
2818,
2728,
2776,
3243,
2631,
2346,
2477,
2399,
2163,
2124,
1973,
1931,
1802,
1751,
1743,
1665,
1632,
1712,
3519,
70530,
7044,
1361,
2102,
9621,
3611,
1027,
1044,
1202,
1113,
984,
1027,
936,
908,
863,
845,
798,
790,
773,
759,
746,
644,
699,
640,
591,
600,
585,
580,
555,
534,
510,
464,
465,
436,
449,
417,
437,
417,
357,
396,
342,
350,
349,
304,
293,
327,
284,
265,
271,
268,
246,
229,
204,
231,
198,
195,
185,
175,
174,
144,
138,
145,
130,
117,
124,
107,
104,
105,
102,
93,
82,
64,
95,
68,
70,
50,
50,
51,
49,
49,
43,
38,
35,
35,
25,
21,
32,
23,
17,
20,
14,
14,
8,
16,
7,
12,
9,
7,
2,
0,
1,
3,
0,
0,
0,
0,
0,
0,
0,
0,
0,
0,
3,
1,
1,
0,
0,
0,
1,
0,
0,
0,
1,
0,
0,
1,
0,
0,
0,
0,
0,
0,
0,
0,
0,
0,
0,
0,
0,
0,
0,
0,
0,
0,
0,
0,
0,
0,
0,
0,
0,
0,
0,
0,
0,
0,
0,
0,
0,
0,
0,
0,
0,
0,
0,
0,
0,
0,
0,
0,
0,
0,
0,
0,
0,
0,
0,
0,
0,
0,
0,
0,
0,
0,
0,
0,
0,
0,
0,
0,
0,
0,
0,
0,
0,
0,
0,
0,
0,
0,
0,
0,
0,
0,
0,
0,
0,
0,
0,
0,
0,
0,
0,
0,
0,
0,
0,
0,
0,
0,
0,
0,
0,
0,
0,
0,
0,
0,
0,
0,
0,
0,
0,
0,
0,
0,
0,
0,
0,
0,
0,
0,
0,
0,
0,
0,
0,
0,
0,
0,
0,
0,
#ENDOFDATA   :