File: N132962/Quantification/20 keV/MMM2/SPI MM2 SPI Magnetite[6][4].msa
#FORMAT      : EMSA/MAS Spectral Data File
#VERSION     : 1.0
#TITLE       : SPI MM2 SPI Magnetite[6][all]
#DATE        : 13-MAR-2025
#TIME        : 09:24
#OWNER       : Unknown
#NPOINTS     : 4096
#NCOLUMNS    : 1
#XUNITS      : eV
#YUNITS      : counts
#DATATYPE    : Y
#XPERCHAN    : 9.99778
#OFFSET      : 1.69135
#BEAMKV      : 20
#SIGNALTYPE  : EDS
#ELEVANGLE   : 35
#AZIMANGLE   : 0
#LIVETIME    : 240.075
#REALTIME    : 257.071
#PROBECUR    : 1.02582
#TAUWIND     : 0
#TDEADLYR    : 0
#TACTLYR     : 0.045
#TALWIND     : 0.025
#CHOFFSET    : 0.0
#XLABEL      : Energy (eV)
#YLABEL      : Counts
#XPOSITION   : 3.94307
#YPOSITION   : -4.25265
#ZPOSITION   : 31.03509
#EDSDET      : SD
##SPECIMEN   : SPI MM2 SPI Magnetite[6][all]
##D2STDCMP   : SPI Magnetite,(O:27.53),(Si:0.01),(Mn:0.18),(Fe:71.88)
##DET_HASH   : 12273538-fd48-a23f-0a19-f1e6fa85caef
##CALIB_HASH : 6abaa72c-aa41-8738-0be9-f592914732f3
##WORKING    : 15.0 mm
##DET_NAME   : EDAX All
##DET_MODE   : MediumLE
#SPECTRUM    :
26,
289,
12088,
9336,
66289,
52097,
2391,
2394,
2883,
3479,
3829,
4315,
4577,
4744,
4350,
4367,
4501,
4414,
4398,
4337,
4161,
4117,
4075,
3742,
3777,
3549,
3495,
3440,
3253,
3089,
3090,
2922,
3055,
3315,
2741,
2582,
2620,
2555,
2451,
2323,
2295,
2178,
2623,
2108,
2359,
36340,
110612,
3038,
1872,
2391,
14241,
7880,
1295,
1338,
1284,
1193,
1161,
1118,
1112,
1034,
1085,
1017,
1014,
980,
896,
864,
899,
904,
856,
866,
789,
748,
754,
692,
704,
656,
651,
625,
590,
571,
579,
569,
515,
501,
504,
494,
431,
480,
436,
383,
406,
465,
396,
354,
365,
282,
332,
305,
269,
257,
245,
268,
195,
228,
189,
200,
192,
180,
158,
138,
138,
154,
130,
142,
103,
122,
88,
80,
75,
78,
94,
91,
57,
53,
78,
42,
57,
41,
48,
39,
27,
36,
31,
25,
19,
10,
28,
14,
13,
6,
8,
8,
1,
1,
0,
1,
1,
0,
0,
0,
0,
1,
0,
0,
1,
1,
3,
3,
0,
0,
0,
0,
0,
1,
0,
0,
0,
2,
0,
0,
0,
0,
0,
0,
0,
0,
0,
0,
1,
0,
0,
0,
0,
0,
0,
0,
0,
0,
0,
0,
0,
0,
0,
0,
0,
0,
0,
0,
0,
0,
0,
0,
0,
0,
0,
0,
0,
0,
1,
0,
0,
0,
1,
0,
0,
0,
0,
0,
0,
0,
0,
0,
0,
0,
0,
0,
0,
0,
0,
0,
0,
0,
0,
0,
0,
0,
0,
0,
0,
0,
0,
0,
0,
0,
0,
0,
0,
0,
0,
0,
0,
0,
0,
0,
0,
0,
0,
0,
0,
0,
0,
0,
0,
0,
0,
0,
0,
0,
0,
0,
0,
0,
0,
0,
0,
0,
0,
0,
0,
0,
0,
0,
0,
0,
0,
0,
0,
0,
0,
0,
0,
0,
0,
0,
#ENDOFDATA   :