File: N132962/Quantification/20 keV/MMM2/SPI MM2 SPI Olivine[1][4].msa
#FORMAT      : EMSA/MAS Spectral Data File
#VERSION     : 1.0
#TITLE       : SPI MM2 SPI Olivine[1][all]
#DATE        : 13-MAR-2025
#TIME        : 09:46
#OWNER       : Unknown
#NPOINTS     : 4096
#NCOLUMNS    : 1
#XUNITS      : eV
#YUNITS      : counts
#DATATYPE    : Y
#XPERCHAN    : 9.99778
#OFFSET      : 1.69135
#BEAMKV      : 20
#SIGNALTYPE  : EDS
#ELEVANGLE   : 35
#AZIMANGLE   : 0
#LIVETIME    : 239.785
#REALTIME    : 255.9137
#PROBECUR    : 1.02582
#TAUWIND     : 0
#TDEADLYR    : 0
#TACTLYR     : 0.045
#TALWIND     : 0.025
#CHOFFSET    : 0.0
#XLABEL      : Energy (eV)
#YLABEL      : Counts
#XPOSITION   : -3.17548
#YPOSITION   : -2.14784
#ZPOSITION   : 31.03509
#EDSDET      : SD
##SPECIMEN   : SPI MM2 SPI Olivine[1][all]
##D2STDCMP   : SPI Olivine,(O:43.96),(Mg:30.26),(Si:19.14),(Mn:0.089),(Fe:6.35),(Ni:0.278),5.0
##DET_HASH   : 12273538-fd48-a23f-0a19-f1e6fa85caef
##CALIB_HASH : 6abaa72c-aa41-8738-0be9-f592914732f3
##WORKING    : 15.0 mm
##DET_NAME   : EDAX All
##DET_MODE   : MediumLE
#SPECTRUM    :
22,
186,
8442,
6501,
68220,
7248,
3325,
3557,
5694,
239432,
2810,
3346,
39602,
19243,
2242,
2303,
2602,
2354,
2623,
2315,
2229,
2360,
2244,
2095,
2058,
2136,
1951,
1815,
1821,
1788,
1663,
1630,
1547,
1547,
1470,
1311,
1331,
1259,
1225,
1245,
1192,
1125,
1245,
1118,
1070,
3640,
9251,
1024,
839,
897,
1863,
1314,
743,
1051,
808,
737,
641,
628,
583,
663,
600,
531,
538,
489,
537,
466,
462,
448,
445,
423,
400,
371,
401,
351,
332,
337,
360,
326,
317,
279,
288,
262,
236,
258,
225,
238,
212,
190,
179,
201,
172,
185,
152,
155,
152,
152,
113,
141,
118,
127,
90,
95,
104,
92,
92,
92,
108,
70,
60,
68,
68,
57,
63,
55,
47,
51,
46,
35,
34,
25,
41,
31,
28,
21,
33,
29,
25,
16,
20,
12,
20,
14,
12,
14,
7,
7,
9,
3,
4,
6,
1,
1,
1,
0,
0,
1,
0,
1,
0,
0,
0,
0,
0,
0,
0,
0,
0,
0,
0,
0,
0,
0,
0,
0,
0,
0,
0,
0,
0,
1,
0,
0,
0,
0,
0,
0,
0,
0,
0,
0,
0,
0,
0,
0,
0,
0,
0,
0,
0,
0,
0,
0,
0,
0,
0,
0,
0,
0,
0,
0,
0,
0,
0,
0,
0,
0,
1,
0,
0,
0,
0,
0,
0,
0,
0,
0,
0,
0,
0,
0,
0,
0,
0,
0,
0,
0,
0,
0,
0,
0,
0,
0,
0,
0,
0,
0,
0,
0,
0,
0,
0,
0,
0,
0,
0,
0,
0,
0,
0,
0,
0,
0,
0,
0,
0,
0,
0,
0,
0,
0,
0,
0,
0,
0,
0,
0,
0,
0,
0,
0,
0,
0,
0,
0,
0,
0,
0,
0,
0,
0,
0,
0,
0,
0,
0,
0,
0,
0,
0,
0,
0,
0,
0,
0,
#ENDOFDATA   :