File: N132962/Quantification/20 keV/MMM2/SPI MM2 SPI Plagioclase[4][4].msa
#FORMAT      : EMSA/MAS Spectral Data File
#VERSION     : 1.0
#TITLE       : SPI MM2 SPI Plagioclase[4][all]
#DATE        : 13-MAR-2025
#TIME        : 10:55
#OWNER       : Unknown
#NPOINTS     : 4096
#NCOLUMNS    : 1
#XUNITS      : eV
#YUNITS      : counts
#DATATYPE    : Y
#XPERCHAN    : 9.99778
#OFFSET      : 1.69135
#BEAMKV      : 20
#SIGNALTYPE  : EDS
#ELEVANGLE   : 35
#AZIMANGLE   : 0
#LIVETIME    : 239.89
#REALTIME    : 255.458
#PROBECUR    : 1.02609
#TAUWIND     : 0
#TDEADLYR    : 0
#TACTLYR     : 0.045
#TALWIND     : 0.025
#CHOFFSET    : 0.0
#XLABEL      : Energy (eV)
#YLABEL      : Counts
#XPOSITION   : -1.33428
#YPOSITION   : -0.28306
#ZPOSITION   : 31.0351
#EDSDET      : SD
##SPECIMEN   : SPI MM2 SPI Plagioclase[4][all]
##D2STDCMP   : SPI Plagioclase,(O:46.79),(Na:3.24),(Al:15.54),(Si:24.83),(K:0.2),(Ca:8.53),(Fe:0.27)
##DET_HASH   : 12273538-fd48-a23f-0a19-f1e6fa85caef
##CALIB_HASH : 6abaa72c-aa41-8738-0be9-f592914732f3
##WORKING    : 15.0 mm
##DET_NAME   : EDAX All
##DET_MODE   : MediumLE
#SPECTRUM    :
20,
181,
10124,
4906,
48309,
2271,
2614,
7055,
4496,
4707,
12561,
48791,
55351,
26655,
2872,
2316,
2795,
2328,
2330,
2345,
2312,
2437,
2191,
2548,
3038,
2500,
22391,
8319,
2671,
4810,
1629,
1573,
1548,
1447,
1456,
1401,
1303,
1311,
1271,
1363,
1114,
1167,
1038,
1055,
994,
1117,
1367,
963,
894,
847,
899,
807,
726,
758,
710,
663,
675,
655,
668,
618,
591,
566,
536,
537,
564,
520,
484,
470,
439,
393,
402,
355,
356,
363,
386,
339,
308,
334,
312,
293,
310,
256,
269,
257,
249,
224,
226,
217,
193,
201,
186,
199,
156,
160,
156,
169,
125,
128,
125,
119,
117,
109,
96,
102,
87,
77,
72,
82,
94,
74,
66,
71,
56,
60,
47,
30,
40,
53,
37,
32,
37,
43,
33,
21,
19,
16,
20,
15,
7,
13,
19,
16,
11,
14,
17,
5,
7,
3,
3,
3,
0,
2,
0,
1,
0,
1,
1,
0,
0,
1,
0,
1,
0,
0,
0,
0,
0,
0,
0,
1,
0,
0,
0,
0,
0,
0,
0,
0,
0,
0,
0,
0,
0,
0,
0,
0,
0,
0,
0,
0,
0,
0,
0,
0,
0,
0,
0,
0,
0,
0,
0,
0,
0,
0,
0,
0,
0,
0,
0,
0,
0,
0,
0,
0,
0,
0,
0,
0,
0,
0,
0,
0,
0,
0,
0,
0,
0,
0,
0,
0,
0,
0,
0,
0,
0,
0,
0,
0,
0,
0,
0,
0,
0,
0,
0,
0,
0,
0,
0,
0,
0,
0,
0,
0,
0,
0,
0,
0,
0,
0,
0,
0,
0,
0,
0,
0,
0,
0,
0,
0,
0,
0,
0,
0,
0,
0,
0,
0,
0,
0,
0,
0,
0,
0,
0,
0,
0,
0,
0,
0,
0,
0,
0,
0,
0,
0,
0,
0,
0,
0,
0,
0,
0,
0,
#ENDOFDATA   :