File: N132962/Quantification/20 keV/MMM2/SPI MM2 Stibnite[0][4].msa
#FORMAT      : EMSA/MAS Spectral Data File
#VERSION     : 1.0
#TITLE       : SPI MM2 Stibnite[0][all]
#DATE        : 13-MAR-2025
#TIME        : 13:16
#OWNER       : Unknown
#NPOINTS     : 4096
#NCOLUMNS    : 1
#XUNITS      : eV
#YUNITS      : counts
#DATATYPE    : Y
#XPERCHAN    : 9.99778
#OFFSET      : 1.69135
#BEAMKV      : 20
#SIGNALTYPE  : EDS
#ELEVANGLE   : 35
#AZIMANGLE   : 0
#LIVETIME    : 239.812
#REALTIME    : 263.259
#PROBECUR    : 1.0263
#TAUWIND     : 0
#TDEADLYR    : 0
#TACTLYR     : 0.045
#TALWIND     : 0.025
#CHOFFSET    : 0.0
#XLABEL      : Energy (eV)
#YLABEL      : Counts
#XPOSITION   : 1.56473
#YPOSITION   : 4.35401
#ZPOSITION   : 31.03511
#EDSDET      : SD
##SPECIMEN   : SPI MM2 Stibnite[0][all]
##DET_HASH   : 12273538-fd48-a23f-0a19-f1e6fa85caef
##CALIB_HASH : 6abaa72c-aa41-8738-0be9-f592914732f3
##WORKING    : 15.0 mm
##DET_NAME   : EDAX All
##DET_MODE   : MediumLE
#SPECTRUM    :
33,
2067,
15021,
16772,
9398,
5498,
4854,
4690,
5430,
5821,
6764,
7113,
7999,
9011,
7505,
8527,
60480,
48255,
11972,
5581,
5759,
5534,
5922,
9355,
5948,
17198,
105789,
28227,
39446,
17301,
7390,
10017,
4043,
6368,
3352,
3150,
3089,
3174,
3168,
3097,
3053,
2996,
3110,
2994,
2977,
2883,
3189,
2664,
2691,
2566,
2643,
2499,
2373,
2601,
2425,
2203,
2174,
2110,
2082,
2039,
1987,
2085,
1892,
1846,
1770,
1776,
1747,
1679,
1672,
1569,
1530,
1487,
1463,
1423,
1333,
1254,
1250,
1216,
1207,
1155,
1109,
1086,
1086,
979,
1022,
955,
953,
908,
816,
834,
786,
773,
781,
696,
685,
633,
608,
551,
571,
506,
484,
492,
467,
421,
419,
400,
408,
361,
351,
310,
316,
298,
278,
270,
245,
223,
233,
208,
197,
191,
211,
161,
160,
142,
157,
126,
119,
105,
94,
112,
88,
76,
77,
44,
51,
41,
41,
31,
25,
20,
14,
18,
7,
6,
3,
2,
3,
1,
0,
2,
0,
2,
1,
0,
2,
2,
1,
0,
0,
0,
0,
0,
2,
3,
0,
0,
0,
0,
0,
1,
0,
0,
2,
0,
0,
0,
1,
0,
0,
0,
0,
0,
0,
1,
0,
0,
0,
1,
1,
0,
0,
0,
1,
0,
1,
0,
0,
0,
1,
0,
0,
0,
0,
0,
0,
0,
0,
0,
0,
0,
0,
0,
0,
0,
0,
0,
0,
0,
0,
0,
0,
0,
0,
0,
0,
0,
0,
0,
0,
0,
0,
0,
0,
0,
0,
0,
0,
0,
0,
0,
0,
0,
0,
0,
0,
0,
0,
0,
0,
0,
0,
0,
0,
0,
0,
0,
0,
0,
0,
0,
0,
0,
0,
0,
0,
0,
0,
0,
0,
0,
0,
0,
0,
0,
0,
0,
0,
0,
0,
0,
0,
0,
0,
0,
0,
0,
0,
0,
0,
0,
0,
0,
0,
0,
#ENDOFDATA   :