File: N132962/Quantification/20 keV/MMM2/SPI MM2 SPI Mangotantalite[5][4].msa
#FORMAT      : EMSA/MAS Spectral Data File
#VERSION     : 1.0
#TITLE       : SPI MM2 SPI Mangotantalite[5][all]
#DATE        : 13-MAR-2025
#TIME        : 09:42
#OWNER       : Unknown
#NPOINTS     : 4096
#NCOLUMNS    : 1
#XUNITS      : eV
#YUNITS      : counts
#DATATYPE    : Y
#XPERCHAN    : 9.99778
#OFFSET      : 1.69135
#BEAMKV      : 20
#SIGNALTYPE  : EDS
#ELEVANGLE   : 35
#AZIMANGLE   : 0
#LIVETIME    : 239.9173
#REALTIME    : 262.121
#PROBECUR    : 1.02582
#TAUWIND     : 0
#TDEADLYR    : 0
#TACTLYR     : 0.045
#TALWIND     : 0.025
#CHOFFSET    : 0.0
#XLABEL      : Energy (eV)
#YLABEL      : Counts
#XPOSITION   : -1.65646
#YPOSITION   : -4.68792
#ZPOSITION   : 31.03509
#EDSDET      : SD
##SPECIMEN   : SPI MM2 SPI Mangotantalite[5][all]
##DET_HASH   : 12273538-fd48-a23f-0a19-f1e6fa85caef
##CALIB_HASH : 6abaa72c-aa41-8738-0be9-f592914732f3
##WORKING    : 15.0 mm
##DET_NAME   : EDAX All
##DET_MODE   : MediumLE
#SPECTRUM    :
27,
760,
14677,
6111,
24985,
7891,
5743,
6273,
7241,
10348,
11044,
9993,
139810,
29771,
10064,
12026,
18749,
6293,
4763,
5251,
4691,
4716,
4785,
4758,
4949,
5007,
4834,
4806,
4754,
4714,
4799,
4612,
5380,
4455,
4268,
4328,
4111,
3953,
3909,
3804,
3821,
4432,
27843,
5513,
3563,
4410,
9136,
4195,
3038,
3047,
3357,
4175,
3082,
2895,
2813,
2625,
2586,
4257,
26413,
6823,
2621,
2274,
2161,
2208,
2167,
2302,
6194,
9823,
4156,
6199,
2249,
1697,
1600,
1566,
1487,
1483,
1435,
1881,
2627,
1523,
1708,
1439,
1081,
1193,
1114,
1039,
1023,
982,
862,
863,
845,
795,
791,
830,
736,
709,
681,
680,
591,
632,
596,
517,
533,
520,
487,
476,
413,
387,
399,
387,
351,
334,
323,
307,
293,
286,
258,
280,
236,
256,
194,
191,
158,
195,
135,
144,
127,
118,
100,
126,
89,
79,
76,
75,
65,
61,
46,
50,
39,
25,
28,
6,
10,
8,
8,
4,
4,
5,
1,
2,
4,
2,
2,
3,
3,
1,
2,
3,
2,
0,
1,
1,
2,
1,
0,
2,
0,
0,
2,
1,
1,
2,
2,
2,
0,
1,
2,
0,
0,
3,
0,
1,
1,
1,
0,
1,
0,
1,
1,
0,
0,
1,
0,
0,
1,
0,
0,
0,
0,
0,
1,
0,
0,
0,
0,
0,
0,
0,
0,
0,
0,
0,
0,
0,
0,
0,
0,
0,
0,
0,
0,
0,
0,
0,
0,
0,
0,
0,
0,
0,
0,
0,
0,
0,
0,
0,
0,
0,
0,
0,
0,
0,
0,
0,
0,
0,
0,
0,
0,
0,
0,
0,
0,
0,
0,
0,
0,
0,
0,
0,
0,
0,
0,
0,
0,
0,
0,
0,
0,
0,
0,
0,
0,
0,
0,
0,
0,
0,
0,
0,
0,
0,
0,
0,
0,
0,
0,
0,
0,
0,
0,
0,
0,
0,
#ENDOFDATA   :