File: N132962/Quantification/20 keV/MMM2/SPI MM2 Stibnite[6][4].msa
#FORMAT      : EMSA/MAS Spectral Data File
#VERSION     : 1.0
#TITLE       : SPI MM2 Stibnite[6][all]
#DATE        : 13-MAR-2025
#TIME        : 13:23
#OWNER       : Unknown
#NPOINTS     : 4096
#NCOLUMNS    : 1
#XUNITS      : eV
#YUNITS      : counts
#DATATYPE    : Y
#XPERCHAN    : 9.99778
#OFFSET      : 1.69135
#BEAMKV      : 20
#SIGNALTYPE  : EDS
#ELEVANGLE   : 35
#AZIMANGLE   : 0
#LIVETIME    : 239.872
#REALTIME    : 263.343
#PROBECUR    : 1.0263
#TAUWIND     : 0
#TDEADLYR    : 0
#TACTLYR     : 0.045
#TALWIND     : 0.025
#CHOFFSET    : 0.0
#XLABEL      : Energy (eV)
#YLABEL      : Counts
#XPOSITION   : 1.5172
#YPOSITION   : 4.29875
#ZPOSITION   : 31.03511
#EDSDET      : SD
##SPECIMEN   : SPI MM2 Stibnite[6][all]
##DET_HASH   : 12273538-fd48-a23f-0a19-f1e6fa85caef
##CALIB_HASH : 6abaa72c-aa41-8738-0be9-f592914732f3
##WORKING    : 15.0 mm
##DET_NAME   : EDAX All
##DET_MODE   : MediumLE
#SPECTRUM    :
17,
1938,
15062,
16630,
9264,
5451,
4826,
4518,
5348,
6071,
6809,
7291,
7832,
8934,
7530,
8443,
60791,
48162,
11950,
5501,
5503,
5416,
5927,
9299,
5858,
17332,
105161,
28220,
39462,
17579,
7280,
10124,
4197,
6425,
3394,
3318,
3104,
3086,
3184,
3107,
3076,
2999,
3149,
2998,
3049,
2930,
3191,
2646,
2611,
2572,
2652,
2531,
2435,
2629,
2435,
2322,
2110,
2187,
2128,
2039,
2020,
2029,
1934,
1857,
1787,
1685,
1747,
1662,
1643,
1546,
1483,
1444,
1434,
1402,
1343,
1383,
1265,
1203,
1176,
1217,
1096,
1133,
1039,
1063,
1040,
913,
947,
874,
841,
838,
779,
759,
752,
671,
661,
641,
638,
607,
577,
526,
519,
485,
460,
458,
422,
369,
390,
379,
299,
336,
305,
309,
246,
270,
253,
247,
229,
200,
195,
192,
191,
165,
165,
123,
125,
106,
111,
101,
96,
86,
87,
58,
51,
69,
51,
50,
37,
28,
24,
15,
16,
10,
12,
1,
2,
4,
1,
5,
1,
2,
2,
0,
2,
2,
3,
0,
3,
1,
1,
1,
2,
2,
2,
0,
0,
0,
2,
1,
0,
1,
0,
0,
0,
0,
0,
2,
0,
2,
1,
0,
2,
0,
0,
0,
0,
0,
0,
1,
0,
0,
0,
0,
0,
0,
0,
0,
0,
0,
1,
0,
0,
1,
1,
0,
0,
0,
0,
0,
0,
0,
0,
0,
0,
0,
0,
0,
0,
0,
0,
0,
0,
0,
0,
0,
0,
0,
0,
0,
0,
0,
0,
0,
0,
0,
0,
0,
0,
0,
0,
0,
0,
0,
0,
0,
0,
0,
0,
0,
0,
0,
0,
0,
0,
0,
0,
0,
0,
0,
0,
0,
0,
0,
0,
0,
0,
0,
0,
0,
0,
0,
0,
0,
0,
0,
0,
0,
0,
0,
0,
0,
0,
0,
0,
0,
0,
0,
0,
0,
0,
0,
0,
0,
0,
0,
#ENDOFDATA   :