File: N132962/Quantification/20 keV/MMM2/SPI MM2 Willemite[7][4].msa
#FORMAT      : EMSA/MAS Spectral Data File
#VERSION     : 1.0
#TITLE       : SPI MM2 Willemite[7][all]
#DATE        : 13-MAR-2025
#TIME        : 14:11
#OWNER       : Unknown
#NPOINTS     : 4096
#NCOLUMNS    : 1
#XUNITS      : eV
#YUNITS      : counts
#DATATYPE    : Y
#XPERCHAN    : 9.99778
#OFFSET      : 1.69135
#BEAMKV      : 20
#SIGNALTYPE  : EDS
#ELEVANGLE   : 35
#AZIMANGLE   : 0
#LIVETIME    : 239.715
#REALTIME    : 257.395
#PROBECUR    : 1.02609
#TAUWIND     : 0
#TDEADLYR    : 0
#TACTLYR     : 0.045
#TALWIND     : 0.025
#CHOFFSET    : 0.0
#XLABEL      : Energy (eV)
#YLABEL      : Counts
#XPOSITION   : 2.82049
#YPOSITION   : 6.28937
#ZPOSITION   : 31.03511
#EDSDET      : SD
##SPECIMEN   : SPI MM2 Willemite[7][all]
##DET_HASH   : 12273538-fd48-a23f-0a19-f1e6fa85caef
##CALIB_HASH : 6abaa72c-aa41-8738-0be9-f592914732f3
##WORKING    : 15.0 mm
##DET_NAME   : EDAX All
##DET_MODE   : MediumLE
#SPECTRUM    :
21,
248,
11426,
6204,
43440,
4614,
11302,
138191,
6048,
3717,
3446,
4275,
24507,
13322,
3580,
3571,
3785,
3706,
3790,
3806,
3859,
3513,
3601,
3525,
3353,
3367,
3272,
3089,
3086,
3007,
2945,
2877,
2618,
2609,
2515,
2485,
2392,
2327,
2277,
2180,
2118,
2220,
11934,
2872,
1933,
1893,
2974,
2107,
1616,
1653,
1565,
1546,
1464,
1499,
1411,
1332,
1271,
1327,
1243,
1240,
1449,
20027,
33830,
1718,
994,
996,
1003,
1176,
5597,
3177,
796,
717,
721,
695,
746,
680,
681,
621,
589,
572,
535,
550,
545,
494,
496,
441,
468,
425,
394,
441,
360,
384,
335,
346,
316,
310,
290,
291,
280,
247,
239,
226,
247,
233,
193,
199,
181,
141,
152,
131,
135,
130,
123,
109,
140,
109,
95,
87,
79,
87,
68,
76,
80,
76,
51,
51,
46,
42,
48,
36,
35,
30,
29,
27,
21,
21,
16,
6,
13,
5,
6,
2,
4,
1,
2,
1,
3,
1,
0,
0,
0,
0,
1,
0,
1,
1,
1,
3,
0,
0,
1,
1,
0,
0,
0,
0,
0,
0,
0,
1,
0,
0,
0,
1,
0,
0,
1,
0,
0,
0,
0,
0,
0,
1,
0,
1,
0,
0,
0,
0,
0,
0,
0,
0,
0,
0,
1,
0,
0,
0,
0,
1,
0,
0,
0,
0,
0,
0,
0,
1,
0,
0,
0,
0,
0,
0,
0,
0,
1,
0,
0,
0,
0,
0,
0,
0,
0,
0,
0,
0,
0,
0,
0,
0,
0,
0,
0,
0,
0,
0,
0,
0,
0,
0,
0,
0,
0,
0,
0,
0,
0,
0,
0,
0,
0,
0,
0,
0,
0,
0,
0,
0,
0,
0,
0,
0,
0,
0,
0,
0,
0,
0,
0,
0,
0,
0,
0,
0,
0,
0,
0,
0,
0,
0,
0,
0,
0,
0,
0,
0,
0,
0,
0,
0,
#ENDOFDATA   :