File: N132962/Quantification/20 keV/MMM2/SPI MM2 SPI Pollucite[3][4].msa
#FORMAT      : EMSA/MAS Spectral Data File
#VERSION     : 1.0
#TITLE       : SPI MM2 SPI Pollucite[3][all]
#DATE        : 13-MAR-2025
#TIME        : 11:03
#OWNER       : Unknown
#NPOINTS     : 4096
#NCOLUMNS    : 1
#XUNITS      : eV
#YUNITS      : counts
#DATATYPE    : Y
#XPERCHAN    : 9.99778
#OFFSET      : 1.69135
#BEAMKV      : 20
#SIGNALTYPE  : EDS
#ELEVANGLE   : 35
#AZIMANGLE   : 0
#LIVETIME    : 239.744
#REALTIME    : 256.945
#PROBECUR    : 1.02609
#TAUWIND     : 0
#TDEADLYR    : 0
#TACTLYR     : 0.045
#TALWIND     : 0.025
#CHOFFSET    : 0.0
#XLABEL      : Energy (eV)
#YLABEL      : Counts
#XPOSITION   : -4.01093
#YPOSITION   : -1.16934
#ZPOSITION   : 31.0351
#EDSDET      : SD
##SPECIMEN   : SPI MM2 SPI Pollucite[3][all]
##D2STDCMP   : SPI Pollucite,(Li:0.05),(O:35.94),(Na:1.5),(Al:9.06),(Si:22.2),(K:0.05),(Rb:0.17),(Cs:32.3)
##DET_HASH   : 12273538-fd48-a23f-0a19-f1e6fa85caef
##CALIB_HASH : 6abaa72c-aa41-8738-0be9-f592914732f3
##WORKING    : 15.0 mm
##DET_NAME   : EDAX All
##DET_MODE   : MediumLE
#SPECTRUM    :
22,
267,
11465,
7735,
64750,
5010,
3408,
5740,
4019,
4341,
8045,
23319,
45276,
22510,
3732,
3701,
4008,
3752,
4163,
3666,
3608,
3678,
3553,
3667,
3527,
3369,
3158,
4841,
3162,
3153,
13505,
28340,
3419,
24568,
6555,
8287,
3578,
2679,
4256,
2437,
2727,
2029,
1835,
1855,
1654,
1749,
1789,
1513,
1591,
1522,
1493,
1474,
1394,
1465,
1303,
1279,
1260,
1247,
1112,
1120,
1173,
1055,
1043,
994,
1042,
983,
941,
926,
867,
881,
818,
782,
718,
771,
694,
744,
663,
687,
613,
611,
625,
565,
555,
523,
532,
485,
480,
481,
429,
458,
377,
364,
363,
357,
336,
316,
331,
312,
285,
258,
256,
254,
223,
218,
222,
190,
196,
199,
153,
151,
140,
129,
137,
106,
102,
106,
108,
92,
87,
78,
81,
78,
60,
91,
63,
52,
63,
57,
47,
43,
23,
37,
34,
25,
29,
14,
20,
9,
10,
12,
7,
5,
3,
0,
1,
0,
2,
0,
1,
0,
1,
0,
0,
0,
0,
0,
0,
0,
0,
0,
0,
0,
0,
0,
0,
0,
0,
0,
0,
0,
0,
0,
1,
0,
0,
0,
0,
0,
0,
0,
0,
0,
0,
0,
0,
0,
0,
0,
0,
0,
0,
0,
0,
0,
0,
0,
0,
0,
0,
0,
0,
0,
0,
0,
0,
0,
0,
0,
0,
0,
0,
0,
0,
0,
0,
0,
0,
0,
0,
0,
0,
0,
0,
0,
0,
0,
0,
0,
0,
0,
0,
0,
0,
0,
0,
0,
0,
0,
0,
0,
0,
0,
0,
0,
0,
0,
0,
0,
0,
0,
0,
0,
0,
0,
0,
0,
0,
0,
0,
0,
0,
0,
0,
0,
0,
0,
0,
0,
0,
0,
0,
0,
0,
0,
0,
0,
0,
0,
0,
0,
0,
0,
0,
0,
0,
0,
0,
0,
0,
0,
0,
0,
0,
0,
#ENDOFDATA   :