File: N132962/Quantification/20 keV/MMM2/SPI MM2 Tugtupite[4][4].msa
#FORMAT      : EMSA/MAS Spectral Data File
#VERSION     : 1.0
#TITLE       : SPI MM2 Tugtupite[4][all]
#DATE        : 13-MAR-2025
#TIME        : 13:40
#OWNER       : Unknown
#NPOINTS     : 4096
#NCOLUMNS    : 1
#XUNITS      : eV
#YUNITS      : counts
#DATATYPE    : Y
#XPERCHAN    : 9.99778
#OFFSET      : 1.69135
#BEAMKV      : 20
#SIGNALTYPE  : EDS
#ELEVANGLE   : 35
#AZIMANGLE   : 0
#LIVETIME    : 239.892
#REALTIME    : 255.475
#PROBECUR    : 1.0264
#TAUWIND     : 0
#TDEADLYR    : 0
#TACTLYR     : 0.045
#TALWIND     : 0.025
#CHOFFSET    : 0.0
#XLABEL      : Energy (eV)
#YLABEL      : Counts
#XPOSITION   : -4.38597
#YPOSITION   : 3.54127
#ZPOSITION   : 31.03511
#EDSDET      : SD
##SPECIMEN   : SPI MM2 Tugtupite[4][all]
##DET_HASH   : 12273538-fd48-a23f-0a19-f1e6fa85caef
##CALIB_HASH : 6abaa72c-aa41-8738-0be9-f592914732f3
##WORKING    : 15.0 mm
##DET_NAME   : EDAX All
##DET_MODE   : MediumLE
#SPECTRUM    :
24,
254,
8253,
5259,
51724,
2379,
3769,
30369,
8774,
3187,
6154,
18831,
55805,
26463,
2295,
2397,
2717,
2409,
5335,
30367,
5867,
2151,
2005,
2061,
1985,
2080,
1866,
1726,
1679,
1663,
1534,
1636,
1463,
1382,
1361,
1310,
1283,
1229,
1178,
1151,
1107,
1060,
978,
1016,
932,
969,
998,
764,
797,
830,
797,
771,
709,
749,
681,
674,
623,
596,
624,
614,
596,
522,
504,
514,
470,
475,
466,
415,
408,
383,
361,
361,
363,
346,
366,
358,
344,
312,
301,
260,
246,
261,
262,
239,
237,
219,
202,
180,
179,
188,
169,
160,
177,
142,
156,
138,
133,
143,
102,
102,
106,
104,
89,
89,
93,
70,
75,
75,
66,
58,
37,
50,
44,
48,
57,
32,
40,
30,
43,
32,
27,
26,
22,
22,
27,
25,
12,
18,
9,
14,
8,
7,
8,
7,
11,
3,
1,
3,
1,
3,
3,
2,
0,
0,
0,
0,
0,
0,
0,
1,
0,
0,
0,
0,
0,
0,
0,
0,
0,
0,
0,
0,
0,
0,
0,
0,
0,
0,
0,
0,
0,
0,
0,
0,
0,
0,
0,
0,
0,
1,
1,
0,
0,
0,
0,
0,
0,
0,
0,
0,
0,
0,
0,
0,
0,
0,
0,
0,
0,
0,
0,
0,
0,
0,
0,
0,
0,
0,
0,
0,
0,
0,
0,
0,
0,
0,
0,
0,
0,
0,
0,
0,
0,
0,
0,
0,
0,
0,
0,
0,
0,
0,
0,
0,
0,
0,
0,
0,
0,
0,
0,
0,
0,
0,
0,
0,
0,
0,
0,
0,
0,
0,
0,
0,
0,
0,
0,
0,
0,
0,
0,
0,
0,
0,
0,
0,
0,
0,
0,
0,
0,
0,
0,
0,
0,
0,
0,
0,
0,
0,
0,
0,
0,
0,
0,
0,
0,
0,
0,
0,
0,
0,
0,
0,
#ENDOFDATA   :