File: N132962/Quantification/20 keV/MMM2/SPI MM2 MgAl2O4[5][4].msa
#FORMAT      : EMSA/MAS Spectral Data File
#VERSION     : 1.0
#TITLE       : SPI MM2 MgAl2O4[5][all]
#DATE        : 13-MAR-2025
#TIME        : 09:32
#OWNER       : Unknown
#NPOINTS     : 4096
#NCOLUMNS    : 1
#XUNITS      : eV
#YUNITS      : counts
#DATATYPE    : Y
#XPERCHAN    : 9.99778
#OFFSET      : 1.69135
#BEAMKV      : 20
#SIGNALTYPE  : EDS
#ELEVANGLE   : 35
#AZIMANGLE   : 0
#LIVETIME    : 239.826
#REALTIME    : 256.369
#PROBECUR    : 1.02582
#TAUWIND     : 0
#TDEADLYR    : 0
#TACTLYR     : 0.045
#TALWIND     : 0.025
#CHOFFSET    : 0.0
#XLABEL      : Energy (eV)
#YLABEL      : Counts
#XPOSITION   : 0.82443
#YPOSITION   : -5.3788
#ZPOSITION   : 31.03509
#EDSDET      : SD
##SPECIMEN   : SPI MM2 MgAl2O4[5][all]
##D2STDCMP   : MgAl2O4,(O:44.9839),(Mg:17.0844),(Al:37.9316)
##DET_HASH   : 12273538-fd48-a23f-0a19-f1e6fa85caef
##CALIB_HASH : 6abaa72c-aa41-8738-0be9-f592914732f3
##WORKING    : 15.0 mm
##DET_NAME   : EDAX All
##DET_MODE   : MediumLE
#SPECTRUM    :
26,
190,
8269,
6498,
69469,
2053,
2800,
3603,
5414,
152633,
19816,
91846,
2098,
2393,
2529,
2089,
2090,
2152,
2343,
2231,
2417,
2414,
2142,
1948,
1857,
1862,
1726,
1660,
1662,
1566,
1573,
1469,
1412,
1364,
1377,
1260,
1243,
1162,
1101,
1094,
1062,
1041,
1002,
944,
881,
914,
937,
812,
836,
810,
779,
717,
697,
709,
658,
612,
591,
562,
565,
550,
543,
504,
499,
505,
441,
448,
421,
412,
386,
377,
344,
382,
335,
322,
318,
308,
324,
268,
317,
279,
234,
219,
237,
223,
225,
232,
197,
204,
186,
166,
178,
142,
141,
149,
126,
127,
140,
113,
128,
106,
108,
88,
74,
81,
85,
82,
71,
64,
73,
54,
49,
55,
50,
55,
46,
40,
40,
45,
45,
30,
19,
30,
23,
29,
24,
9,
20,
17,
17,
16,
9,
5,
4,
12,
6,
2,
7,
3,
3,
3,
3,
1,
1,
0,
0,
0,
0,
0,
0,
0,
0,
0,
0,
0,
0,
0,
0,
0,
1,
0,
0,
0,
0,
0,
0,
0,
0,
0,
0,
0,
0,
0,
0,
0,
0,
0,
0,
0,
0,
0,
0,
0,
0,
0,
0,
0,
0,
0,
0,
0,
0,
0,
0,
0,
0,
0,
0,
0,
0,
0,
0,
0,
0,
0,
0,
0,
0,
0,
0,
0,
0,
0,
0,
0,
0,
0,
0,
0,
0,
0,
0,
0,
0,
0,
0,
0,
0,
0,
0,
0,
0,
0,
0,
0,
0,
0,
0,
0,
0,
0,
0,
0,
0,
0,
0,
0,
0,
0,
0,
0,
0,
0,
0,
0,
0,
0,
0,
0,
0,
0,
0,
0,
0,
0,
0,
0,
0,
0,
0,
0,
0,
0,
0,
0,
0,
0,
0,
0,
0,
0,
0,
0,
0,
0,
0,
0,
0,
0,
0,
0,
0,
0,
0,
0,
#ENDOFDATA   :