File: N132962/Quantification/20 keV/MMM2/SPI MM2 SPI Magnetite[3][4].msa
#FORMAT      : EMSA/MAS Spectral Data File
#VERSION     : 1.0
#TITLE       : SPI MM2 SPI Magnetite[3][all]
#DATE        : 13-MAR-2025
#TIME        : 09:21
#OWNER       : Unknown
#NPOINTS     : 4096
#NCOLUMNS    : 1
#XUNITS      : eV
#YUNITS      : counts
#DATATYPE    : Y
#XPERCHAN    : 9.99778
#OFFSET      : 1.69135
#BEAMKV      : 20
#SIGNALTYPE  : EDS
#ELEVANGLE   : 35
#AZIMANGLE   : 0
#LIVETIME    : 239.844
#REALTIME    : 256.806
#PROBECUR    : 1.02582
#TAUWIND     : 0
#TDEADLYR    : 0
#TACTLYR     : 0.045
#TALWIND     : 0.025
#CHOFFSET    : 0.0
#XLABEL      : Energy (eV)
#YLABEL      : Counts
#XPOSITION   : 3.91513
#YPOSITION   : -4.1553
#ZPOSITION   : 31.03509
#EDSDET      : SD
##SPECIMEN   : SPI MM2 SPI Magnetite[3][all]
##D2STDCMP   : SPI Magnetite,(O:27.53),(Si:0.01),(Mn:0.18),(Fe:71.88)
##DET_HASH   : 12273538-fd48-a23f-0a19-f1e6fa85caef
##CALIB_HASH : 6abaa72c-aa41-8738-0be9-f592914732f3
##WORKING    : 15.0 mm
##DET_NAME   : EDAX All
##DET_MODE   : MediumLE
#SPECTRUM    :
27,
283,
12025,
9388,
66354,
51756,
2310,
2343,
2827,
3455,
3712,
4303,
4644,
4831,
4288,
4413,
4423,
4252,
4292,
4354,
4170,
4108,
3889,
3846,
3803,
3560,
3434,
3307,
3240,
3159,
3050,
3030,
3016,
3265,
2652,
2749,
2506,
2376,
2427,
2380,
2106,
2234,
2728,
2188,
2420,
35962,
109835,
3040,
1894,
2326,
14102,
7901,
1308,
1203,
1340,
1159,
1189,
1053,
1054,
1070,
1015,
995,
997,
956,
965,
928,
874,
859,
873,
810,
784,
719,
714,
692,
679,
666,
666,
631,
625,
572,
579,
510,
518,
492,
482,
459,
456,
436,
427,
402,
377,
440,
412,
339,
315,
313,
309,
302,
277,
246,
253,
216,
237,
217,
219,
181,
187,
181,
183,
162,
148,
142,
134,
129,
125,
106,
99,
84,
81,
94,
70,
76,
67,
64,
58,
51,
46,
40,
43,
36,
33,
31,
26,
30,
22,
16,
17,
7,
9,
9,
3,
5,
3,
2,
1,
0,
2,
1,
0,
1,
1,
1,
2,
1,
0,
1,
1,
0,
0,
1,
1,
1,
1,
0,
1,
0,
1,
0,
0,
0,
0,
1,
0,
0,
1,
0,
0,
0,
2,
0,
0,
0,
1,
1,
0,
0,
0,
0,
0,
0,
0,
0,
0,
0,
0,
0,
0,
0,
0,
0,
0,
1,
0,
0,
0,
0,
0,
0,
0,
0,
0,
0,
0,
0,
0,
0,
0,
0,
0,
0,
0,
0,
0,
0,
0,
0,
0,
0,
0,
0,
0,
0,
0,
0,
0,
0,
0,
0,
0,
0,
0,
0,
0,
0,
0,
0,
0,
0,
0,
1,
0,
0,
0,
0,
0,
0,
0,
0,
0,
0,
0,
0,
0,
0,
0,
0,
0,
0,
0,
0,
0,
0,
0,
0,
0,
0,
0,
0,
0,
0,
0,
0,
0,
0,
0,
0,
0,
0,
0,
0,
0,
0,
0,
0,
#ENDOFDATA   :