File: N132962/Quantification/20 keV/MMM2/SPI MM2 SPI Pentlandite[6][4].msa
#FORMAT      : EMSA/MAS Spectral Data File
#VERSION     : 1.0
#TITLE       : SPI MM2 SPI Pentlandite[6][all]
#DATE        : 13-MAR-2025
#TIME        : 10:39
#OWNER       : Unknown
#NPOINTS     : 4096
#NCOLUMNS    : 1
#XUNITS      : eV
#YUNITS      : counts
#DATATYPE    : Y
#XPERCHAN    : 9.99778
#OFFSET      : 1.69135
#BEAMKV      : 20
#SIGNALTYPE  : EDS
#ELEVANGLE   : 35
#AZIMANGLE   : 0
#LIVETIME    : 239.9602
#REALTIME    : 260.266
#PROBECUR    : 1.02606
#TAUWIND     : 0
#TDEADLYR    : 0
#TACTLYR     : 0.045
#TALWIND     : 0.025
#CHOFFSET    : 0.0
#XLABEL      : Energy (eV)
#YLABEL      : Counts
#XPOSITION   : 3.93263
#YPOSITION   : -0.37408
#ZPOSITION   : 31.0351
#EDSDET      : SD
##SPECIMEN   : SPI MM2 SPI Pentlandite[6][all]
##D2STDCMP   : SPI Pentlandite,(S:32.89),(Fe:30.88),(Co:0.43),(Ni:35.61)
##DET_HASH   : 12273538-fd48-a23f-0a19-f1e6fa85caef
##CALIB_HASH : 6abaa72c-aa41-8738-0be9-f592914732f3
##WORKING    : 15.0 mm
##DET_NAME   : EDAX All
##DET_MODE   : MediumLE
#SPECTRUM    :
24,
464,
11715,
3261,
13710,
50062,
62919,
3322,
3440,
4030,
4699,
5303,
5561,
5762,
5475,
5731,
62770,
48850,
10322,
3684,
3764,
4009,
3875,
3730,
3622,
3560,
3553,
3514,
3376,
3405,
3233,
2988,
3165,
3480,
2976,
2818,
2670,
2699,
2597,
2531,
2492,
2433,
2330,
2265,
2415,
17390,
50457,
2491,
2146,
2618,
7913,
4661,
2262,
35031,
17385,
1684,
1455,
1525,
2116,
7347,
1747,
1189,
1252,
1180,
1070,
1046,
977,
1044,
1002,
1007,
1069,
874,
826,
846,
821,
816,
731,
723,
718,
691,
703,
645,
643,
602,
551,
575,
550,
503,
457,
501,
463,
517,
434,
408,
349,
367,
375,
312,
351,
319,
296,
288,
280,
264,
232,
251,
229,
208,
176,
181,
168,
160,
170,
144,
147,
132,
124,
131,
109,
115,
74,
82,
68,
74,
69,
72,
60,
61,
51,
43,
42,
33,
39,
32,
28,
28,
17,
13,
18,
14,
6,
12,
4,
0,
5,
0,
6,
1,
1,
2,
2,
2,
0,
2,
1,
0,
0,
0,
1,
1,
1,
0,
1,
0,
0,
1,
0,
0,
2,
2,
0,
0,
0,
0,
0,
0,
0,
0,
0,
1,
0,
0,
1,
0,
0,
0,
0,
0,
0,
0,
0,
0,
0,
0,
0,
1,
0,
0,
0,
0,
0,
0,
0,
0,
0,
0,
0,
0,
0,
0,
0,
0,
0,
0,
0,
0,
0,
0,
0,
0,
0,
0,
0,
0,
0,
0,
0,
0,
0,
0,
0,
0,
0,
0,
0,
0,
0,
0,
0,
0,
0,
0,
0,
0,
0,
0,
0,
0,
0,
0,
0,
0,
0,
0,
0,
0,
0,
0,
0,
0,
0,
0,
0,
0,
0,
0,
0,
0,
0,
0,
0,
0,
0,
0,
0,
0,
0,
0,
0,
0,
0,
0,
0,
0,
0,
0,
0,
0,
0,
0,
0,
0,
0,
0,
#ENDOFDATA   :