File: N132962/Quantification/20 keV/MMM2/SPI MM2 Pyrite[7][4].msa
#FORMAT      : EMSA/MAS Spectral Data File
#VERSION     : 1.0
#TITLE       : SPI MM2 Pyrite[7][all]
#DATE        : 13-MAR-2025
#TIME        : 12:57
#OWNER       : Unknown
#NPOINTS     : 4096
#NCOLUMNS    : 1
#XUNITS      : eV
#YUNITS      : counts
#DATATYPE    : Y
#XPERCHAN    : 9.99778
#OFFSET      : 1.69135
#BEAMKV      : 20
#SIGNALTYPE  : EDS
#ELEVANGLE   : 35
#AZIMANGLE   : 0
#LIVETIME    : 239.858
#REALTIME    : 262.054
#PROBECUR    : 1.02627
#TAUWIND     : 0
#TDEADLYR    : 0
#TACTLYR     : 0.045
#TALWIND     : 0.025
#CHOFFSET    : 0.0
#XLABEL      : Energy (eV)
#YLABEL      : Counts
#XPOSITION   : 7.88986
#YPOSITION   : 1.90523
#ZPOSITION   : 31.03511
#EDSDET      : SD
##SPECIMEN   : SPI MM2 Pyrite[7][all]
##DET_HASH   : 12273538-fd48-a23f-0a19-f1e6fa85caef
##CALIB_HASH : 6abaa72c-aa41-8738-0be9-f592914732f3
##WORKING    : 15.0 mm
##DET_NAME   : EDAX All
##DET_MODE   : MediumLE
#SPECTRUM    :
15,
721,
10797,
2604,
16502,
63261,
3630,
3674,
4283,
4904,
5432,
5735,
6320,
6396,
5939,
6408,
106737,
83447,
14281,
3105,
3182,
3309,
3297,
3133,
2999,
2985,
3177,
2905,
2880,
2779,
2734,
2703,
2729,
3623,
2622,
2385,
2397,
2235,
2219,
2274,
2143,
2058,
1993,
1924,
2140,
22627,
69492,
2400,
1748,
1912,
9254,
5450,
1335,
1351,
1293,
1267,
1174,
1210,
1133,
1168,
1048,
1033,
1230,
1031,
962,
1006,
902,
910,
900,
815,
844,
762,
747,
666,
664,
687,
655,
674,
621,
594,
547,
579,
549,
491,
508,
485,
471,
433,
405,
384,
401,
415,
366,
357,
347,
317,
343,
303,
248,
248,
252,
253,
211,
212,
205,
177,
139,
166,
150,
166,
142,
146,
142,
143,
110,
110,
85,
83,
93,
76,
80,
70,
87,
47,
49,
56,
35,
52,
42,
37,
32,
23,
27,
17,
28,
17,
17,
14,
12,
5,
4,
3,
2,
2,
3,
2,
1,
1,
0,
3,
0,
2,
0,
0,
0,
1,
0,
1,
0,
0,
0,
0,
0,
0,
0,
0,
1,
0,
0,
0,
1,
1,
0,
0,
0,
0,
0,
1,
0,
1,
0,
0,
0,
0,
0,
1,
0,
0,
1,
0,
0,
0,
0,
0,
0,
0,
0,
0,
0,
0,
0,
0,
0,
0,
0,
0,
0,
0,
0,
0,
0,
0,
0,
0,
0,
0,
0,
0,
0,
0,
0,
0,
0,
0,
0,
0,
0,
0,
0,
0,
0,
0,
0,
0,
0,
0,
0,
0,
0,
0,
0,
0,
0,
0,
0,
0,
0,
0,
0,
0,
0,
0,
0,
0,
0,
0,
0,
0,
0,
0,
0,
0,
0,
0,
0,
0,
0,
0,
0,
0,
0,
0,
0,
0,
0,
0,
0,
0,
0,
0,
0,
0,
0,
0,
0,
0,
0,
0,
0,
0,
0,
0,
0,
0,
#ENDOFDATA   :