File: N132962/Quantification/20 keV/MMM2/SPI MM2 C[3][4].msa
#FORMAT      : EMSA/MAS Spectral Data File
#VERSION     : 1.0
#TITLE       : SPI MM2 C[3][all]
#DATE        : 13-MAR-2025
#TIME        : 14:24
#OWNER       : Unknown
#NPOINTS     : 4096
#NCOLUMNS    : 1
#XUNITS      : eV
#YUNITS      : counts
#DATATYPE    : Y
#XPERCHAN    : 9.99778
#OFFSET      : 1.69135
#BEAMKV      : 20
#SIGNALTYPE  : EDS
#ELEVANGLE   : 35
#AZIMANGLE   : 0
#LIVETIME    : 239.994
#REALTIME    : 250.917
#PROBECUR    : 1.02609
#TAUWIND     : 0
#TDEADLYR    : 0
#TACTLYR     : 0.045
#TALWIND     : 0.025
#CHOFFSET    : 0.0
#XLABEL      : Energy (eV)
#YLABEL      : Counts
#XPOSITION   : 3.28421
#YPOSITION   : 8.93984
#ZPOSITION   : 31.03511
#EDSDET      : SD
##SPECIMEN   : SPI MM2 C[3][all]
##D2STDCMP   : C,(C:100.0)
##DET_HASH   : 12273538-fd48-a23f-0a19-f1e6fa85caef
##CALIB_HASH : 6abaa72c-aa41-8738-0be9-f592914732f3
##WORKING    : 15.0 mm
##DET_NAME   : EDAX All
##DET_MODE   : MediumLE
#SPECTRUM    :
23,
942,
445476,
510,
2262,
1156,
1481,
1894,
2343,
2524,
2648,
2558,
2525,
2433,
2049,
1894,
1787,
1736,
1547,
1595,
1422,
1308,
1246,
1179,
1136,
1046,
997,
944,
954,
902,
772,
741,
706,
726,
645,
638,
616,
601,
579,
544,
561,
526,
492,
478,
440,
443,
475,
408,
381,
369,
343,
333,
336,
346,
302,
310,
267,
285,
242,
254,
241,
227,
221,
206,
223,
227,
207,
176,
177,
189,
179,
154,
159,
125,
136,
140,
128,
139,
118,
95,
121,
120,
130,
79,
92,
89,
105,
59,
86,
79,
73,
63,
59,
52,
46,
48,
41,
41,
41,
41,
47,
40,
20,
41,
32,
14,
24,
22,
21,
22,
23,
22,
17,
23,
9,
15,
18,
13,
6,
19,
10,
9,
6,
5,
7,
12,
6,
6,
6,
3,
5,
0,
1,
1,
4,
2,
0,
0,
0,
0,
1,
3,
0,
0,
0,
0,
0,
0,
0,
0,
0,
0,
0,
0,
0,
0,
0,
0,
0,
0,
0,
0,
0,
0,
0,
0,
0,
0,
0,
0,
0,
0,
0,
0,
0,
0,
0,
0,
0,
0,
0,
0,
0,
0,
0,
0,
0,
0,
0,
0,
0,
0,
0,
0,
0,
0,
0,
0,
0,
0,
0,
0,
0,
0,
0,
0,
0,
0,
0,
0,
0,
0,
0,
0,
0,
0,
0,
0,
0,
0,
0,
0,
0,
0,
0,
0,
0,
0,
0,
0,
0,
0,
0,
0,
0,
0,
0,
0,
0,
0,
0,
0,
0,
0,
0,
0,
0,
0,
0,
0,
0,
0,
0,
0,
0,
0,
0,
0,
0,
0,
0,
0,
0,
0,
0,
0,
0,
0,
0,
0,
0,
0,
0,
0,
0,
0,
0,
0,
0,
0,
0,
0,
0,
0,
0,
0,
0,
0,
0,
0,
0,
0,
0,
0,
#ENDOFDATA   :