File: N132962/Quantification/20 keV/MMM2/SPI MM2 Zircon[0][4].msa
#FORMAT      : EMSA/MAS Spectral Data File
#VERSION     : 1.0
#TITLE       : SPI MM2 Zircon[0][all]
#DATE        : 13-MAR-2025
#TIME        : 13:44
#OWNER       : Unknown
#NPOINTS     : 4096
#NCOLUMNS    : 1
#XUNITS      : eV
#YUNITS      : counts
#DATATYPE    : Y
#XPERCHAN    : 9.99778
#OFFSET      : 1.69135
#BEAMKV      : 20
#SIGNALTYPE  : EDS
#ELEVANGLE   : 35
#AZIMANGLE   : 0
#LIVETIME    : 239.703
#REALTIME    : 257.331
#PROBECUR    : 1.0264
#TAUWIND     : 0
#TDEADLYR    : 0
#TACTLYR     : 0.045
#TALWIND     : 0.025
#CHOFFSET    : 0.0
#XLABEL      : Energy (eV)
#YLABEL      : Counts
#XPOSITION   : -2.66678
#YPOSITION   : 6.6799
#ZPOSITION   : 31.03511
#EDSDET      : SD
##SPECIMEN   : SPI MM2 Zircon[0][all]
##DET_HASH   : 12273538-fd48-a23f-0a19-f1e6fa85caef
##CALIB_HASH : 6abaa72c-aa41-8738-0be9-f592914732f3
##WORKING    : 15.0 mm
##DET_NAME   : EDAX All
##DET_MODE   : MediumLE
#SPECTRUM    :
32,
770,
14710,
4437,
25522,
3469,
4363,
4898,
5773,
6716,
6963,
7966,
51164,
32270,
27808,
102551,
12359,
3359,
4136,
3135,
3031,
3277,
3140,
3207,
3005,
3187,
3109,
3220,
2981,
2998,
2942,
2785,
2736,
2681,
2594,
2470,
2394,
2425,
2434,
2290,
2139,
2157,
2042,
1944,
1949,
2012,
2039,
1782,
1770,
1657,
1815,
1584,
1446,
1598,
1545,
1390,
1613,
1553,
1273,
1333,
1240,
1203,
1207,
1109,
1167,
1259,
1109,
1033,
987,
947,
886,
881,
900,
855,
804,
842,
789,
809,
712,
683,
642,
649,
610,
600,
541,
549,
521,
512,
485,
462,
413,
434,
433,
422,
366,
370,
328,
330,
295,
297,
265,
256,
243,
243,
223,
225,
222,
209,
160,
182,
190,
229,
479,
419,
178,
109,
97,
117,
101,
104,
95,
67,
84,
82,
48,
79,
98,
65,
55,
46,
32,
36,
33,
29,
17,
30,
16,
18,
13,
11,
11,
8,
4,
0,
1,
0,
0,
0,
0,
0,
1,
0,
0,
1,
0,
0,
0,
0,
0,
0,
0,
0,
0,
0,
2,
0,
0,
0,
1,
0,
0,
0,
0,
1,
0,
0,
0,
0,
0,
0,
0,
1,
0,
0,
0,
0,
0,
0,
0,
1,
0,
0,
0,
0,
0,
0,
0,
0,
0,
0,
0,
0,
0,
0,
0,
0,
0,
0,
0,
0,
0,
0,
0,
0,
0,
0,
0,
0,
0,
0,
0,
0,
0,
0,
0,
0,
0,
0,
0,
0,
0,
0,
0,
0,
0,
0,
0,
0,
0,
0,
0,
0,
0,
0,
0,
0,
0,
0,
0,
0,
0,
0,
0,
0,
0,
0,
0,
0,
0,
0,
0,
0,
0,
0,
0,
0,
0,
0,
0,
0,
0,
0,
0,
0,
0,
0,
0,
0,
0,
0,
0,
0,
0,
0,
0,
0,
0,
0,
0,
0,
0,
0,
0,
0,
#ENDOFDATA   :