File: N132962/Quantification/20 keV/MMM2/SPI MM2 SPI Monazite[5][4].msa
#FORMAT      : EMSA/MAS Spectral Data File
#VERSION     : 1.0
#TITLE       : SPI MM2 SPI Monazite[5][all]
#DATE        : 13-MAR-2025
#TIME        : 10:09
#OWNER       : Unknown
#NPOINTS     : 4096
#NCOLUMNS    : 1
#XUNITS      : eV
#YUNITS      : counts
#DATATYPE    : Y
#XPERCHAN    : 9.99778
#OFFSET      : 1.69135
#BEAMKV      : 20
#SIGNALTYPE  : EDS
#ELEVANGLE   : 35
#AZIMANGLE   : 0
#LIVETIME    : 239.98
#REALTIME    : 258.542
#PROBECUR    : 1.02627
#TAUWIND     : 0
#TDEADLYR    : 0
#TACTLYR     : 0.045
#TALWIND     : 0.025
#CHOFFSET    : 0.0
#XLABEL      : Energy (eV)
#YLABEL      : Counts
#XPOSITION   : 2.344
#YPOSITION   : -2.701
#ZPOSITION   : 31.03509
#EDSDET      : SD
##SPECIMEN   : SPI MM2 SPI Monazite[5][all]
##D2STDCMP   : SPI Monazite,(O:26.45),(Si:0.83),(P:11.85),(Ca:0.65),(Y:1.59),(La:7.84),(Ce:19.96),(Pr:2.47),(Nd:9.68),(Sm:3.7),(Eu:0.38),(Gd:2.89),(Tb:0.35),(Dy:1.21),(Pb:0.25),(Th:9.7),(U:0.16),5.0
##DET_HASH   : 12273538-fd48-a23f-0a19-f1e6fa85caef
##CALIB_HASH : 6abaa72c-aa41-8738-0be9-f592914732f3
##WORKING    : 15.0 mm
##DET_NAME   : EDAX All
##DET_MODE   : MediumLE
#SPECTRUM    :
23,
417,
17381,
8029,
40836,
9332,
10956,
9447,
7349,
6675,
5654,
5668,
7498,
7230,
36463,
12793,
5109,
5956,
5386,
5164,
5202,
11531,
11080,
7725,
6116,
4782,
5974,
4795,
4381,
4838,
4433,
4649,
4248,
13165,
13423,
16911,
12015,
15232,
15572,
6165,
10968,
9227,
4382,
7039,
5363,
4119,
3574,
3986,
3368,
2859,
2640,
2722,
2498,
2351,
2121,
2173,
2128,
1931,
1979,
1836,
1815,
1822,
1747,
1601,
1633,
1536,
1520,
1454,
1387,
1357,
1339,
1328,
1326,
1260,
1247,
1210,
1212,
1121,
1060,
1040,
1032,
985,
960,
936,
845,
839,
859,
802,
742,
702,
738,
759,
769,
744,
584,
583,
551,
512,
530,
503,
458,
455,
413,
389,
383,
365,
355,
361,
305,
326,
316,
291,
266,
236,
232,
216,
202,
207,
161,
177,
160,
142,
137,
119,
122,
95,
114,
102,
89,
77,
79,
64,
58,
45,
56,
39,
31,
33,
29,
14,
9,
14,
0,
2,
3,
2,
2,
1,
1,
1,
1,
0,
3,
2,
1,
2,
2,
0,
0,
1,
1,
1,
1,
0,
0,
0,
0,
0,
1,
0,
0,
0,
1,
1,
2,
0,
1,
0,
0,
1,
0,
0,
0,
0,
0,
2,
0,
0,
0,
0,
3,
0,
1,
1,
0,
0,
0,
0,
0,
0,
0,
0,
0,
1,
0,
0,
0,
0,
0,
0,
1,
0,
0,
0,
0,
0,
0,
0,
0,
0,
0,
0,
0,
0,
0,
0,
0,
0,
0,
0,
0,
0,
0,
0,
0,
0,
0,
0,
1,
0,
0,
0,
0,
0,
0,
0,
0,
0,
0,
0,
0,
0,
0,
0,
0,
0,
0,
0,
0,
0,
0,
0,
0,
0,
0,
0,
0,
0,
0,
0,
0,
0,
0,
0,
0,
0,
0,
0,
0,
0,
0,
0,
0,
0,
0,
0,
0,
0,
0,
0,
0,
0,
0,
0,
#ENDOFDATA   :