File: N132962/Quantification/20 keV/MMM2/SPI MM2 Spessartine[3][4].msa
#FORMAT      : EMSA/MAS Spectral Data File
#VERSION     : 1.0
#TITLE       : SPI MM2 Spessartine[3][all]
#DATE        : 13-MAR-2025
#TIME        : 12:06
#OWNER       : Unknown
#NPOINTS     : 4096
#NCOLUMNS    : 1
#XUNITS      : eV
#YUNITS      : counts
#DATATYPE    : Y
#XPERCHAN    : 9.99778
#OFFSET      : 1.69135
#BEAMKV      : 20
#SIGNALTYPE  : EDS
#ELEVANGLE   : 35
#AZIMANGLE   : 0
#LIVETIME    : 239.914
#REALTIME    : 256.297
#PROBECUR    : 1.02616
#TAUWIND     : 0
#TDEADLYR    : 0
#TACTLYR     : 0.045
#TALWIND     : 0.025
#CHOFFSET    : 0.0
#XLABEL      : Energy (eV)
#YLABEL      : Counts
#XPOSITION   : -5.76443
#YPOSITION   : 1.5168
#ZPOSITION   : 31.03511
#EDSDET      : SD
##SPECIMEN   : SPI MM2 Spessartine[3][all]
##DET_HASH   : 12273538-fd48-a23f-0a19-f1e6fa85caef
##CALIB_HASH : 6abaa72c-aa41-8738-0be9-f592914732f3
##WORKING    : 15.0 mm
##DET_NAME   : EDAX All
##DET_MODE   : MediumLE
#SPECTRUM    :
24,
212,
9817,
7636,
71192,
5383,
2198,
2770,
3368,
4014,
8899,
30015,
37062,
18294,
3254,
3194,
3393,
3173,
3039,
3039,
2985,
2986,
2890,
2904,
2660,
2786,
3151,
2709,
2514,
2416,
2444,
2106,
2135,
2071,
1920,
1857,
1794,
1734,
1685,
1650,
1676,
3487,
70414,
7119,
1457,
2011,
9553,
3644,
1110,
1046,
1266,
1082,
953,
1019,
949,
897,
859,
806,
753,
782,
760,
745,
768,
682,
660,
657,
636,
594,
633,
577,
585,
529,
525,
525,
467,
461,
456,
452,
406,
391,
363,
378,
327,
354,
351,
333,
301,
298,
257,
269,
252,
262,
257,
222,
211,
213,
221,
184,
198,
177,
165,
161,
152,
131,
124,
125,
117,
110,
102,
108,
99,
92,
77,
74,
70,
68,
62,
58,
39,
44,
49,
45,
45,
42,
28,
45,
37,
29,
25,
25,
25,
19,
23,
14,
12,
11,
14,
11,
5,
1,
2,
3,
2,
0,
1,
1,
0,
1,
0,
1,
0,
1,
1,
0,
0,
1,
0,
0,
0,
1,
0,
0,
0,
0,
0,
0,
0,
0,
0,
0,
0,
0,
0,
0,
0,
0,
0,
0,
0,
0,
0,
0,
0,
0,
1,
0,
0,
0,
0,
0,
1,
0,
0,
0,
0,
0,
0,
0,
0,
0,
0,
0,
0,
0,
0,
0,
0,
0,
0,
0,
0,
0,
0,
0,
0,
0,
0,
0,
0,
0,
0,
0,
0,
0,
0,
0,
0,
0,
0,
0,
0,
0,
0,
0,
0,
0,
0,
0,
0,
0,
0,
0,
0,
0,
0,
0,
0,
0,
0,
0,
0,
0,
0,
0,
0,
0,
0,
0,
0,
0,
0,
0,
0,
0,
0,
0,
0,
0,
0,
0,
0,
0,
0,
0,
0,
0,
0,
0,
0,
0,
0,
0,
0,
0,
0,
0,
0,
0,
0,
0,
0,
0,
0,
0,
#ENDOFDATA   :