File: N132962/Quantification/20 keV/MMM2/SPI MM2 Pyrope[1][4].msa
#FORMAT      : EMSA/MAS Spectral Data File
#VERSION     : 1.0
#TITLE       : SPI MM2 Pyrope[1][all]
#DATE        : 13-MAR-2025
#TIME        : 12:41
#OWNER       : Unknown
#NPOINTS     : 4096
#NCOLUMNS    : 1
#XUNITS      : eV
#YUNITS      : counts
#DATATYPE    : Y
#XPERCHAN    : 9.99778
#OFFSET      : 1.69135
#BEAMKV      : 20
#SIGNALTYPE  : EDS
#ELEVANGLE   : 35
#AZIMANGLE   : 0
#LIVETIME    : 239.8023
#REALTIME    : 255.022
#PROBECUR    : 1.02627
#TAUWIND     : 0
#TDEADLYR    : 0
#TACTLYR     : 0.045
#TALWIND     : 0.025
#CHOFFSET    : 0.0
#XLABEL      : Energy (eV)
#YLABEL      : Counts
#XPOSITION   : 4.58345
#YPOSITION   : 1.53495
#ZPOSITION   : 31.03511
#EDSDET      : SD
##SPECIMEN   : SPI MM2 Pyrope[1][all]
##D2STDCMP   : Pyrope,(O:47.6258),(Mg:18.0873),(Al:13.3861),(Si:20.9007),5.0
##DET_HASH   : 12273538-fd48-a23f-0a19-f1e6fa85caef
##CALIB_HASH : 6abaa72c-aa41-8738-0be9-f592914732f3
##WORKING    : 15.0 mm
##DET_NAME   : EDAX All
##DET_MODE   : MediumLE
#SPECTRUM    :
23,
198,
9303,
6026,
58749,
7313,
2565,
3184,
4296,
94401,
8554,
30268,
40648,
20066,
2537,
2353,
2838,
2488,
2436,
2381,
2323,
2460,
2274,
2349,
2174,
2173,
9491,
4350,
2182,
2918,
1656,
1580,
2496,
1615,
1496,
1631,
1350,
1350,
1762,
2638,
1187,
1191,
1675,
1203,
1070,
3972,
10480,
1132,
908,
967,
1867,
1350,
813,
735,
773,
689,
667,
639,
621,
701,
573,
588,
570,
525,
484,
505,
520,
490,
502,
454,
425,
396,
374,
402,
394,
339,
357,
337,
306,
283,
257,
285,
264,
280,
213,
252,
232,
229,
222,
183,
183,
170,
165,
170,
142,
149,
167,
135,
127,
117,
118,
130,
93,
90,
92,
99,
68,
70,
75,
78,
68,
62,
73,
58,
51,
51,
44,
32,
33,
28,
45,
32,
27,
33,
30,
22,
27,
27,
26,
16,
16,
13,
9,
10,
8,
8,
11,
6,
3,
2,
1,
2,
0,
1,
0,
1,
0,
0,
0,
0,
0,
0,
0,
0,
0,
0,
0,
0,
0,
0,
0,
0,
0,
1,
0,
0,
0,
0,
0,
0,
0,
0,
0,
0,
0,
0,
0,
0,
0,
0,
0,
0,
0,
0,
0,
0,
0,
0,
0,
0,
0,
0,
0,
0,
0,
0,
0,
0,
0,
0,
0,
0,
0,
0,
0,
0,
0,
0,
0,
0,
0,
0,
0,
0,
0,
0,
0,
0,
0,
0,
0,
0,
0,
0,
0,
0,
0,
0,
0,
0,
0,
0,
0,
0,
0,
0,
0,
0,
0,
0,
0,
0,
0,
0,
0,
0,
0,
0,
0,
0,
0,
0,
0,
0,
0,
0,
0,
0,
0,
0,
0,
0,
0,
0,
0,
0,
0,
0,
0,
0,
0,
0,
0,
0,
0,
0,
0,
0,
0,
0,
0,
0,
0,
0,
0,
0,
0,
0,
0,
0,
0,
0,
0,
0,
#ENDOFDATA   :