File: N132962/Quantification/20 keV/MMM2/SPI MM2 SPI Plagioclase[7][4].msa
#FORMAT      : EMSA/MAS Spectral Data File
#VERSION     : 1.0
#TITLE       : SPI MM2 SPI Plagioclase[7][all]
#DATE        : 13-MAR-2025
#TIME        : 10:58
#OWNER       : Unknown
#NPOINTS     : 4096
#NCOLUMNS    : 1
#XUNITS      : eV
#YUNITS      : counts
#DATATYPE    : Y
#XPERCHAN    : 9.99778
#OFFSET      : 1.69135
#BEAMKV      : 20
#SIGNALTYPE  : EDS
#ELEVANGLE   : 35
#AZIMANGLE   : 0
#LIVETIME    : 239.841
#REALTIME    : 255.41
#PROBECUR    : 1.02609
#TAUWIND     : 0
#TDEADLYR    : 0
#TACTLYR     : 0.045
#TALWIND     : 0.025
#CHOFFSET    : 0.0
#XLABEL      : Energy (eV)
#YLABEL      : Counts
#XPOSITION   : -1.36264
#YPOSITION   : -0.29886
#ZPOSITION   : 31.0351
#EDSDET      : SD
##SPECIMEN   : SPI MM2 SPI Plagioclase[7][all]
##D2STDCMP   : SPI Plagioclase,(O:46.79),(Na:3.24),(Al:15.54),(Si:24.83),(K:0.2),(Ca:8.53),(Fe:0.27)
##DET_HASH   : 12273538-fd48-a23f-0a19-f1e6fa85caef
##CALIB_HASH : 6abaa72c-aa41-8738-0be9-f592914732f3
##WORKING    : 15.0 mm
##DET_NAME   : EDAX All
##DET_MODE   : MediumLE
#SPECTRUM    :
30,
175,
9326,
4864,
47994,
2235,
2723,
6965,
4342,
4699,
12595,
48779,
55427,
26824,
2909,
2313,
2775,
2354,
2323,
2236,
2329,
2347,
2124,
2601,
2987,
2421,
22566,
8475,
2617,
4831,
1644,
1531,
1536,
1429,
1335,
1394,
1334,
1288,
1237,
1285,
1096,
1116,
1037,
1044,
979,
1123,
1392,
976,
883,
871,
825,
827,
767,
751,
699,
658,
642,
643,
591,
630,
582,
546,
513,
507,
568,
509,
441,
487,
449,
463,
370,
426,
388,
351,
369,
338,
320,
355,
298,
299,
289,
261,
264,
254,
218,
202,
207,
199,
202,
203,
163,
159,
162,
151,
148,
153,
139,
145,
127,
108,
103,
100,
112,
103,
88,
80,
81,
73,
65,
65,
66,
61,
46,
50,
54,
60,
35,
43,
46,
33,
40,
44,
16,
35,
24,
21,
15,
19,
16,
9,
10,
11,
11,
17,
11,
3,
4,
8,
2,
2,
0,
2,
0,
0,
0,
0,
0,
0,
0,
0,
0,
0,
0,
0,
0,
0,
0,
0,
0,
0,
0,
0,
0,
0,
0,
0,
0,
0,
0,
0,
0,
0,
0,
0,
0,
0,
0,
0,
0,
0,
0,
0,
0,
0,
0,
0,
0,
1,
0,
0,
0,
0,
0,
0,
0,
0,
0,
0,
0,
0,
0,
0,
0,
0,
0,
0,
0,
0,
0,
0,
0,
0,
0,
0,
0,
0,
0,
0,
0,
0,
0,
0,
0,
0,
0,
0,
0,
0,
0,
0,
0,
0,
0,
0,
0,
0,
0,
0,
0,
0,
0,
0,
0,
0,
0,
0,
0,
0,
0,
0,
0,
0,
0,
0,
0,
0,
0,
0,
0,
0,
0,
0,
0,
0,
0,
0,
0,
0,
0,
0,
0,
0,
0,
0,
0,
0,
0,
0,
0,
0,
0,
0,
0,
0,
0,
0,
0,
0,
0,
0,
0,
0,
0,
0,
#ENDOFDATA   :