File: N132962/Quantification/20 keV/MMM2/SPI MM2 SPI Mangotantalite[6][4].msa
#FORMAT      : EMSA/MAS Spectral Data File
#VERSION     : 1.0
#TITLE       : SPI MM2 SPI Mangotantalite[6][all]
#DATE        : 13-MAR-2025
#TIME        : 09:43
#OWNER       : Unknown
#NPOINTS     : 4096
#NCOLUMNS    : 1
#XUNITS      : eV
#YUNITS      : counts
#DATATYPE    : Y
#XPERCHAN    : 9.99778
#OFFSET      : 1.69135
#BEAMKV      : 20
#SIGNALTYPE  : EDS
#ELEVANGLE   : 35
#AZIMANGLE   : 0
#LIVETIME    : 239.876
#REALTIME    : 261.735
#PROBECUR    : 1.02582
#TAUWIND     : 0
#TDEADLYR    : 0
#TACTLYR     : 0.045
#TALWIND     : 0.025
#CHOFFSET    : 0.0
#XLABEL      : Energy (eV)
#YLABEL      : Counts
#XPOSITION   : -1.57371
#YPOSITION   : -4.58274
#ZPOSITION   : 31.03509
#EDSDET      : SD
##SPECIMEN   : SPI MM2 SPI Mangotantalite[6][all]
##DET_HASH   : 12273538-fd48-a23f-0a19-f1e6fa85caef
##CALIB_HASH : 6abaa72c-aa41-8738-0be9-f592914732f3
##WORKING    : 15.0 mm
##DET_NAME   : EDAX All
##DET_MODE   : MediumLE
#SPECTRUM    :
23,
755,
14450,
6167,
25143,
7875,
5614,
6198,
7251,
10071,
10907,
10052,
132788,
29018,
10115,
13470,
21281,
6657,
4884,
5145,
4638,
4726,
4846,
4824,
4852,
4988,
4780,
4709,
4719,
4573,
4559,
4572,
5388,
4333,
4231,
4303,
4092,
3880,
3791,
3948,
3730,
4449,
28105,
5441,
3459,
4518,
9243,
4004,
3026,
2911,
3289,
4000,
2984,
2854,
2714,
2587,
2648,
4160,
25176,
6598,
2578,
2276,
2158,
2094,
1985,
2232,
5914,
9208,
4054,
5876,
2222,
1726,
1512,
1514,
1515,
1410,
1427,
1837,
2596,
1422,
1632,
1386,
1146,
1152,
1043,
1032,
983,
945,
908,
850,
833,
794,
738,
759,
729,
696,
635,
620,
573,
610,
610,
547,
498,
482,
464,
457,
416,
406,
386,
411,
342,
301,
310,
291,
291,
263,
243,
245,
233,
257,
197,
171,
189,
157,
167,
139,
131,
125,
108,
92,
106,
74,
66,
78,
67,
63,
68,
34,
25,
26,
19,
13,
8,
6,
7,
2,
4,
3,
2,
1,
2,
2,
4,
2,
5,
0,
1,
3,
4,
3,
3,
4,
0,
1,
3,
1,
0,
2,
1,
1,
0,
1,
0,
2,
0,
1,
0,
0,
0,
0,
1,
0,
0,
0,
1,
0,
0,
0,
1,
0,
1,
0,
0,
2,
0,
2,
0,
0,
0,
0,
0,
0,
0,
0,
0,
0,
0,
0,
0,
0,
0,
0,
0,
0,
0,
1,
0,
0,
0,
0,
0,
0,
0,
0,
0,
0,
0,
0,
0,
0,
0,
0,
0,
0,
0,
0,
1,
0,
0,
0,
0,
0,
0,
0,
0,
0,
0,
0,
0,
0,
0,
0,
0,
0,
0,
0,
0,
0,
0,
0,
0,
0,
0,
0,
0,
0,
0,
0,
0,
0,
0,
0,
0,
0,
0,
0,
0,
0,
0,
0,
0,
0,
0,
0,
0,
0,
0,
0,
0,
0,
0,
0,
0,
0,
#ENDOFDATA   :