File: N132962/Quantification/20 keV/MMM2/SPI MM2 SPI Magnetite[7][4].msa
#FORMAT      : EMSA/MAS Spectral Data File
#VERSION     : 1.0
#TITLE       : SPI MM2 SPI Magnetite[7][all]
#DATE        : 13-MAR-2025
#TIME        : 09:26
#OWNER       : Unknown
#NPOINTS     : 4096
#NCOLUMNS    : 1
#XUNITS      : eV
#YUNITS      : counts
#DATATYPE    : Y
#XPERCHAN    : 9.99778
#OFFSET      : 1.69135
#BEAMKV      : 20
#SIGNALTYPE  : EDS
#ELEVANGLE   : 35
#AZIMANGLE   : 0
#LIVETIME    : 239.868
#REALTIME    : 256.75
#PROBECUR    : 1.02582
#TAUWIND     : 0
#TDEADLYR    : 0
#TACTLYR     : 0.045
#TALWIND     : 0.025
#CHOFFSET    : 0.0
#XLABEL      : Energy (eV)
#YLABEL      : Counts
#XPOSITION   : 3.90276
#YPOSITION   : -4.09581
#ZPOSITION   : 31.03509
#EDSDET      : SD
##SPECIMEN   : SPI MM2 SPI Magnetite[7][all]
##D2STDCMP   : SPI Magnetite,(O:27.53),(Si:0.01),(Mn:0.18),(Fe:71.88)
##DET_HASH   : 12273538-fd48-a23f-0a19-f1e6fa85caef
##CALIB_HASH : 6abaa72c-aa41-8738-0be9-f592914732f3
##WORKING    : 15.0 mm
##DET_NAME   : EDAX All
##DET_MODE   : MediumLE
#SPECTRUM    :
23,
313,
11905,
9416,
64938,
50976,
2283,
3116,
2858,
3337,
3837,
4943,
4587,
4736,
4252,
4312,
4510,
4462,
4223,
4289,
4124,
4030,
3786,
3905,
3736,
3473,
3383,
3285,
3252,
3080,
3006,
2871,
3062,
3183,
2634,
2712,
2534,
2416,
2449,
2414,
2201,
2090,
2694,
2100,
2402,
35698,
109459,
2961,
1846,
2359,
14262,
7806,
1287,
1300,
1269,
1183,
1138,
1114,
1118,
1105,
1032,
1146,
1188,
930,
941,
916,
854,
832,
878,
848,
848,
709,
732,
739,
675,
666,
618,
639,
636,
538,
567,
558,
509,
515,
462,
451,
464,
423,
422,
413,
401,
459,
381,
335,
309,
300,
326,
253,
261,
236,
256,
246,
244,
203,
197,
178,
196,
161,
163,
147,
141,
151,
121,
132,
115,
113,
90,
86,
57,
72,
69,
78,
57,
59,
58,
53,
43,
40,
38,
35,
44,
36,
20,
17,
18,
21,
17,
17,
11,
11,
8,
8,
2,
1,
2,
0,
1,
0,
1,
1,
0,
1,
0,
1,
2,
1,
0,
0,
0,
1,
0,
0,
0,
1,
1,
0,
0,
1,
0,
0,
0,
0,
0,
1,
0,
0,
0,
0,
1,
0,
0,
0,
0,
1,
0,
0,
0,
0,
0,
1,
0,
1,
0,
0,
0,
0,
0,
0,
0,
0,
0,
0,
0,
0,
0,
0,
0,
0,
0,
0,
0,
0,
0,
0,
0,
0,
0,
0,
0,
0,
0,
0,
0,
0,
0,
0,
0,
0,
0,
0,
0,
0,
0,
0,
0,
0,
0,
0,
0,
0,
0,
0,
0,
0,
0,
0,
0,
0,
0,
0,
0,
0,
0,
0,
0,
0,
0,
0,
0,
0,
0,
0,
0,
0,
0,
0,
0,
0,
0,
0,
0,
0,
0,
0,
0,
0,
0,
0,
0,
0,
0,
0,
0,
0,
0,
0,
0,
0,
0,
0,
0,
0,
0,
0,
#ENDOFDATA   :