File: N132962/Quantification/20 keV/MMM2/SPI MM2 C[4][4].msa
#FORMAT      : EMSA/MAS Spectral Data File
#VERSION     : 1.0
#TITLE       : SPI MM2 C[4][all]
#DATE        : 13-MAR-2025
#TIME        : 14:25
#OWNER       : Unknown
#NPOINTS     : 4096
#NCOLUMNS    : 1
#XUNITS      : eV
#YUNITS      : counts
#DATATYPE    : Y
#XPERCHAN    : 9.99778
#OFFSET      : 1.69135
#BEAMKV      : 20
#SIGNALTYPE  : EDS
#ELEVANGLE   : 35
#AZIMANGLE   : 0
#LIVETIME    : 240.002
#REALTIME    : 250.851
#PROBECUR    : 1.02609
#TAUWIND     : 0
#TDEADLYR    : 0
#TACTLYR     : 0.045
#TALWIND     : 0.025
#CHOFFSET    : 0.0
#XLABEL      : Energy (eV)
#YLABEL      : Counts
#XPOSITION   : 3.27067
#YPOSITION   : 8.90949
#ZPOSITION   : 31.03511
#EDSDET      : SD
##SPECIMEN   : SPI MM2 C[4][all]
##D2STDCMP   : C,(C:100.0)
##DET_HASH   : 12273538-fd48-a23f-0a19-f1e6fa85caef
##CALIB_HASH : 6abaa72c-aa41-8738-0be9-f592914732f3
##WORKING    : 15.0 mm
##DET_NAME   : EDAX All
##DET_MODE   : MediumLE
#SPECTRUM    :
25,
994,
442161,
600,
2304,
1200,
1530,
1893,
2233,
2464,
2600,
2702,
2567,
2448,
2036,
1897,
1782,
1753,
1533,
1490,
1386,
1288,
1233,
1183,
1110,
1027,
1017,
935,
940,
807,
846,
732,
735,
672,
700,
656,
625,
581,
555,
554,
527,
525,
471,
464,
448,
454,
468,
419,
373,
385,
356,
370,
302,
317,
315,
281,
267,
251,
269,
247,
240,
242,
211,
168,
207,
164,
209,
170,
171,
160,
190,
132,
150,
125,
139,
139,
121,
122,
118,
117,
121,
111,
96,
98,
82,
86,
76,
83,
70,
68,
73,
74,
51,
60,
53,
66,
46,
43,
36,
46,
45,
39,
30,
32,
27,
29,
22,
19,
13,
16,
26,
24,
18,
15,
13,
16,
17,
13,
15,
14,
11,
12,
10,
4,
6,
5,
7,
7,
5,
5,
4,
1,
6,
2,
2,
1,
3,
3,
3,
1,
0,
0,
0,
0,
0,
0,
0,
0,
1,
0,
0,
0,
0,
0,
0,
0,
0,
0,
0,
0,
0,
0,
0,
0,
0,
0,
0,
0,
1,
0,
0,
0,
0,
0,
0,
0,
0,
0,
0,
0,
0,
0,
0,
0,
0,
0,
0,
0,
0,
0,
0,
0,
0,
0,
0,
0,
0,
0,
0,
0,
0,
0,
0,
0,
0,
0,
0,
0,
0,
0,
0,
0,
0,
0,
0,
0,
0,
0,
0,
0,
0,
0,
0,
0,
0,
0,
0,
0,
0,
0,
0,
0,
0,
0,
0,
0,
0,
0,
0,
0,
0,
0,
0,
0,
0,
0,
0,
0,
0,
0,
0,
0,
0,
0,
0,
0,
0,
0,
0,
0,
0,
0,
0,
0,
0,
0,
0,
0,
0,
0,
0,
0,
0,
0,
0,
0,
0,
0,
0,
0,
0,
0,
0,
0,
0,
0,
0,
0,
0,
0,
0,
0,
0,
0,
#ENDOFDATA   :