File: N132962/Quantification/20 keV/MMM2/SPI MM2 Zircon[1][4].msa
#FORMAT      : EMSA/MAS Spectral Data File
#VERSION     : 1.0
#TITLE       : SPI MM2 Zircon[1][all]
#DATE        : 13-MAR-2025
#TIME        : 13:45
#OWNER       : Unknown
#NPOINTS     : 4096
#NCOLUMNS    : 1
#XUNITS      : eV
#YUNITS      : counts
#DATATYPE    : Y
#XPERCHAN    : 9.99778
#OFFSET      : 1.69135
#BEAMKV      : 20
#SIGNALTYPE  : EDS
#ELEVANGLE   : 35
#AZIMANGLE   : 0
#LIVETIME    : 239.917
#REALTIME    : 257.507
#PROBECUR    : 1.0264
#TAUWIND     : 0
#TDEADLYR    : 0
#TACTLYR     : 0.045
#TALWIND     : 0.025
#CHOFFSET    : 0.0
#XLABEL      : Energy (eV)
#YLABEL      : Counts
#XPOSITION   : -2.71396
#YPOSITION   : 6.67237
#ZPOSITION   : 31.03511
#EDSDET      : SD
##SPECIMEN   : SPI MM2 Zircon[1][all]
##DET_HASH   : 12273538-fd48-a23f-0a19-f1e6fa85caef
##CALIB_HASH : 6abaa72c-aa41-8738-0be9-f592914732f3
##WORKING    : 15.0 mm
##DET_NAME   : EDAX All
##DET_MODE   : MediumLE
#SPECTRUM    :
11,
717,
14544,
4556,
25451,
3459,
4362,
4810,
5678,
6420,
7208,
7748,
50942,
32273,
27684,
103076,
12198,
3285,
4168,
3133,
3032,
3172,
3148,
3098,
3129,
3190,
3002,
3268,
3038,
3088,
2857,
2834,
2780,
2619,
2589,
2432,
2450,
2540,
2355,
2254,
2243,
2188,
2056,
2035,
1979,
1961,
2111,
1803,
1796,
1755,
1684,
1580,
1501,
1587,
1525,
1412,
1667,
1468,
1266,
1308,
1231,
1201,
1198,
1151,
1223,
1136,
1091,
1044,
939,
928,
919,
859,
802,
777,
848,
834,
780,
765,
718,
690,
651,
639,
650,
565,
535,
537,
537,
508,
481,
441,
456,
432,
406,
382,
332,
371,
363,
325,
311,
264,
291,
238,
242,
251,
213,
186,
210,
200,
170,
174,
168,
243,
511,
392,
152,
131,
91,
113,
96,
100,
105,
81,
74,
68,
92,
66,
108,
52,
48,
41,
38,
26,
30,
35,
25,
16,
15,
13,
14,
6,
6,
4,
3,
4,
0,
0,
0,
0,
1,
1,
0,
0,
2,
1,
0,
1,
0,
0,
0,
0,
0,
2,
0,
0,
0,
1,
1,
1,
0,
0,
0,
2,
2,
0,
0,
0,
0,
0,
0,
0,
0,
0,
0,
1,
1,
0,
0,
0,
0,
1,
0,
0,
0,
0,
0,
0,
0,
0,
0,
1,
0,
0,
0,
0,
0,
0,
2,
0,
0,
0,
0,
1,
0,
0,
0,
0,
0,
0,
0,
0,
0,
0,
0,
0,
0,
0,
0,
0,
0,
0,
0,
0,
0,
0,
0,
0,
0,
0,
0,
0,
0,
0,
0,
0,
0,
0,
0,
0,
0,
0,
0,
0,
0,
0,
0,
0,
0,
0,
0,
0,
0,
0,
0,
0,
0,
0,
0,
0,
0,
0,
0,
0,
0,
0,
0,
0,
0,
0,
0,
0,
0,
0,
0,
0,
0,
0,
0,
0,
0,
0,
0,
0,
0,
0,
#ENDOFDATA   :