File: N132962/Quantification/20 keV/MMM2/SPI MM2 SPI Olivine[7][4].msa
#FORMAT      : EMSA/MAS Spectral Data File
#VERSION     : 1.0
#TITLE       : SPI MM2 SPI Olivine[7][all]
#DATE        : 13-MAR-2025
#TIME        : 09:53
#OWNER       : Unknown
#NPOINTS     : 4096
#NCOLUMNS    : 1
#XUNITS      : eV
#YUNITS      : counts
#DATATYPE    : Y
#XPERCHAN    : 9.99778
#OFFSET      : 1.69135
#BEAMKV      : 20
#SIGNALTYPE  : EDS
#ELEVANGLE   : 35
#AZIMANGLE   : 0
#LIVETIME    : 239.603
#REALTIME    : 255.725
#PROBECUR    : 1.02627
#TAUWIND     : 0
#TDEADLYR    : 0
#TACTLYR     : 0.045
#TALWIND     : 0.025
#CHOFFSET    : 0.0
#XLABEL      : Energy (eV)
#YLABEL      : Counts
#XPOSITION   : -3.1707
#YPOSITION   : -2.0927
#ZPOSITION   : 31.03509
#EDSDET      : SD
##SPECIMEN   : SPI MM2 SPI Olivine[7][all]
##D2STDCMP   : SPI Olivine,(O:43.96),(Mg:30.26),(Si:19.14),(Mn:0.089),(Fe:6.35),(Ni:0.278),5.0
##DET_HASH   : 12273538-fd48-a23f-0a19-f1e6fa85caef
##CALIB_HASH : 6abaa72c-aa41-8738-0be9-f592914732f3
##WORKING    : 15.0 mm
##DET_NAME   : EDAX All
##DET_MODE   : MediumLE
#SPECTRUM    :
20,
182,
8718,
6801,
68023,
7202,
3221,
3540,
5737,
239676,
2799,
3254,
39350,
19571,
2258,
2255,
2637,
2330,
2699,
2282,
2228,
2432,
2236,
2217,
1971,
2062,
1922,
1832,
1825,
1663,
1678,
1623,
1495,
1456,
1341,
1339,
1361,
1390,
1273,
1219,
1126,
1157,
1270,
1021,
1039,
3627,
9357,
980,
873,
944,
1824,
1309,
806,
999,
864,
735,
642,
621,
620,
637,
572,
552,
534,
558,
543,
500,
453,
475,
418,
403,
416,
414,
333,
392,
345,
308,
337,
302,
306,
276,
254,
234,
241,
238,
246,
228,
217,
194,
189,
207,
176,
174,
161,
181,
152,
150,
140,
120,
102,
117,
125,
126,
99,
71,
83,
92,
70,
73,
67,
75,
48,
57,
57,
55,
48,
41,
36,
45,
33,
44,
27,
31,
30,
24,
30,
12,
23,
17,
21,
20,
12,
12,
5,
11,
5,
11,
6,
9,
3,
6,
3,
0,
0,
1,
0,
0,
0,
0,
0,
0,
0,
0,
0,
0,
0,
0,
0,
0,
0,
0,
0,
0,
0,
0,
0,
0,
0,
0,
0,
0,
0,
0,
0,
0,
0,
0,
0,
0,
0,
0,
0,
0,
0,
0,
1,
0,
0,
0,
0,
0,
0,
0,
0,
0,
0,
0,
0,
0,
0,
0,
0,
0,
0,
0,
0,
0,
0,
0,
0,
0,
0,
0,
0,
0,
0,
0,
0,
0,
0,
0,
0,
0,
0,
0,
0,
0,
0,
0,
0,
0,
0,
0,
0,
0,
0,
0,
0,
0,
0,
0,
0,
0,
0,
0,
0,
0,
0,
0,
0,
0,
0,
0,
0,
0,
0,
0,
0,
0,
0,
0,
0,
0,
0,
0,
0,
0,
0,
0,
0,
0,
0,
0,
0,
0,
0,
0,
0,
0,
0,
0,
0,
0,
0,
0,
0,
0,
0,
0,
0,
0,
0,
0,
0,
0,
#ENDOFDATA   :