File: N132962/Quantification/20 keV/MMM2/SPI MM2 MgAl2O4[0][4].msa
#FORMAT      : EMSA/MAS Spectral Data File
#VERSION     : 1.0
#TITLE       : SPI MM2 MgAl2O4[0][all]
#DATE        : 13-MAR-2025
#TIME        : 09:27
#OWNER       : Unknown
#NPOINTS     : 4096
#NCOLUMNS    : 1
#XUNITS      : eV
#YUNITS      : counts
#DATATYPE    : Y
#XPERCHAN    : 9.99778
#OFFSET      : 1.69135
#BEAMKV      : 20
#SIGNALTYPE  : EDS
#ELEVANGLE   : 35
#AZIMANGLE   : 0
#LIVETIME    : 239.861
#REALTIME    : 256.42
#PROBECUR    : 1.02582
#TAUWIND     : 0
#TDEADLYR    : 0
#TACTLYR     : 0.045
#TALWIND     : 0.025
#CHOFFSET    : 0.0
#XLABEL      : Energy (eV)
#YLABEL      : Counts
#XPOSITION   : 0.8218
#YPOSITION   : -5.36128
#ZPOSITION   : 31.03509
#EDSDET      : SD
##SPECIMEN   : SPI MM2 MgAl2O4[0][all]
##D2STDCMP   : MgAl2O4,(O:44.9839),(Mg:17.0844),(Al:37.9316)
##DET_HASH   : 12273538-fd48-a23f-0a19-f1e6fa85caef
##CALIB_HASH : 6abaa72c-aa41-8738-0be9-f592914732f3
##WORKING    : 15.0 mm
##DET_NAME   : EDAX All
##DET_MODE   : MediumLE
#SPECTRUM    :
16,
195,
8212,
6614,
69894,
2064,
2912,
3734,
5460,
152510,
19890,
91169,
2252,
2348,
2470,
2074,
2111,
2217,
2314,
2288,
2304,
2361,
2080,
1944,
1880,
1773,
1740,
1679,
1674,
1543,
1536,
1500,
1461,
1335,
1340,
1293,
1204,
1152,
1097,
1114,
1025,
969,
1036,
989,
878,
899,
932,
853,
821,
782,
717,
743,
730,
701,
630,
628,
631,
602,
605,
582,
518,
493,
506,
507,
474,
477,
426,
452,
410,
373,
373,
369,
361,
318,
312,
308,
296,
273,
277,
269,
281,
274,
242,
217,
218,
192,
210,
216,
183,
160,
161,
160,
155,
145,
150,
134,
114,
104,
108,
90,
95,
95,
98,
102,
67,
72,
53,
62,
65,
78,
48,
66,
58,
39,
43,
40,
52,
28,
33,
25,
23,
27,
26,
19,
25,
19,
14,
13,
12,
17,
14,
13,
8,
11,
4,
10,
3,
1,
2,
0,
2,
3,
3,
0,
0,
0,
0,
0,
0,
0,
0,
0,
0,
0,
0,
0,
0,
0,
0,
0,
0,
0,
0,
0,
0,
0,
0,
0,
0,
0,
0,
0,
0,
0,
0,
0,
0,
0,
0,
0,
0,
0,
0,
0,
0,
0,
0,
0,
0,
0,
0,
0,
0,
0,
0,
0,
0,
0,
0,
0,
0,
0,
0,
0,
0,
0,
0,
0,
0,
0,
0,
0,
0,
0,
0,
0,
0,
0,
0,
0,
0,
0,
0,
0,
0,
0,
0,
0,
0,
0,
0,
0,
0,
0,
0,
0,
0,
0,
0,
0,
0,
0,
0,
0,
0,
0,
0,
0,
0,
0,
0,
0,
0,
0,
0,
0,
0,
0,
0,
0,
0,
0,
0,
0,
0,
0,
0,
0,
0,
0,
0,
0,
0,
0,
0,
0,
0,
0,
0,
0,
0,
0,
0,
0,
0,
0,
0,
0,
0,
0,
0,
0,
0,
0,
#ENDOFDATA   :