File: N132962/Quantification/20 keV/MMM2/SPI MM2 Scheelite[6][4].msa
#FORMAT      : EMSA/MAS Spectral Data File
#VERSION     : 1.0
#TITLE       : SPI MM2 Scheelite[6][all]
#DATE        : 13-MAR-2025
#TIME        : 12:19
#OWNER       : Unknown
#NPOINTS     : 4096
#NCOLUMNS    : 1
#XUNITS      : eV
#YUNITS      : counts
#DATATYPE    : Y
#XPERCHAN    : 9.99778
#OFFSET      : 1.69135
#BEAMKV      : 20
#SIGNALTYPE  : EDS
#ELEVANGLE   : 35
#AZIMANGLE   : 0
#LIVETIME    : 239.8805
#REALTIME    : 262.96
#PROBECUR    : 1.02616
#TAUWIND     : 0
#TDEADLYR    : 0
#TACTLYR     : 0.045
#TALWIND     : 0.025
#CHOFFSET    : 0.0
#XLABEL      : Energy (eV)
#YLABEL      : Counts
#XPOSITION   : -2.75227
#YPOSITION   : 2.01027
#ZPOSITION   : 31.03511
#EDSDET      : SD
##SPECIMEN   : SPI MM2 Scheelite[6][all]
##DET_HASH   : 12273538-fd48-a23f-0a19-f1e6fa85caef
##CALIB_HASH : 6abaa72c-aa41-8738-0be9-f592914732f3
##WORKING    : 15.0 mm
##DET_NAME   : EDAX All
##DET_MODE   : MediumLE
#SPECTRUM    :
34,
546,
17597,
4615,
19954,
5096,
6092,
6760,
7674,
8715,
21098,
9880,
21350,
180781,
7310,
6150,
5483,
5620,
4867,
4693,
4863,
4814,
4925,
4945,
4840,
5293,
37700,
15108,
6094,
9510,
4311,
4369,
4113,
4236,
4168,
4083,
4033,
3977,
3845,
3933,
3816,
3450,
3541,
3404,
3326,
3364,
3544,
3083,
3083,
3004,
3070,
2782,
3198,
3907,
2819,
2651,
2569,
2436,
2449,
6958,
27338,
4109,
2403,
2244,
2040,
1997,
1951,
2047,
3900,
10994,
4769,
6333,
2710,
1766,
1537,
1389,
1362,
1378,
1326,
1323,
2121,
2144,
1339,
1443,
1289,
1081,
1049,
949,
933,
878,
847,
794,
758,
779,
731,
726,
735,
648,
645,
554,
528,
569,
564,
518,
433,
445,
441,
439,
412,
379,
366,
350,
328,
298,
299,
277,
244,
228,
243,
226,
210,
200,
199,
171,
171,
161,
131,
132,
111,
114,
95,
101,
84,
78,
54,
70,
46,
35,
37,
28,
22,
20,
15,
3,
1,
2,
0,
2,
0,
1,
1,
3,
2,
2,
0,
1,
0,
1,
0,
3,
1,
1,
1,
1,
1,
2,
1,
0,
1,
1,
1,
1,
0,
0,
1,
0,
0,
1,
0,
0,
1,
0,
3,
0,
1,
1,
0,
0,
0,
0,
2,
0,
0,
2,
1,
0,
1,
0,
0,
0,
0,
0,
0,
0,
0,
0,
0,
1,
0,
0,
0,
0,
0,
0,
0,
0,
0,
0,
0,
0,
0,
0,
0,
0,
0,
0,
0,
0,
0,
0,
0,
0,
0,
0,
0,
0,
0,
0,
0,
0,
0,
0,
0,
0,
0,
0,
0,
0,
0,
0,
0,
0,
0,
0,
0,
0,
0,
0,
0,
0,
0,
0,
0,
0,
0,
0,
0,
0,
0,
0,
0,
0,
0,
0,
0,
0,
0,
0,
0,
0,
0,
0,
0,
0,
0,
0,
0,
0,
0,
0,
0,
0,
0,
0,
#ENDOFDATA   :