File: N132962/Quantification/20 keV/MMM2/SPI MM2 SPI Monazite[6][4].msa
#FORMAT      : EMSA/MAS Spectral Data File
#VERSION     : 1.0
#TITLE       : SPI MM2 SPI Monazite[6][all]
#DATE        : 13-MAR-2025
#TIME        : 10:10
#OWNER       : Unknown
#NPOINTS     : 4096
#NCOLUMNS    : 1
#XUNITS      : eV
#YUNITS      : counts
#DATATYPE    : Y
#XPERCHAN    : 9.99778
#OFFSET      : 1.69135
#BEAMKV      : 20
#SIGNALTYPE  : EDS
#ELEVANGLE   : 35
#AZIMANGLE   : 0
#LIVETIME    : 239.931
#REALTIME    : 258.478
#PROBECUR    : 1.02627
#TAUWIND     : 0
#TDEADLYR    : 0
#TACTLYR     : 0.045
#TALWIND     : 0.025
#CHOFFSET    : 0.0
#XLABEL      : Energy (eV)
#YLABEL      : Counts
#XPOSITION   : 2.37071
#YPOSITION   : -2.77189
#ZPOSITION   : 31.03509
#EDSDET      : SD
##SPECIMEN   : SPI MM2 SPI Monazite[6][all]
##D2STDCMP   : SPI Monazite,(O:26.45),(Si:0.83),(P:11.85),(Ca:0.65),(Y:1.59),(La:7.84),(Ce:19.96),(Pr:2.47),(Nd:9.68),(Sm:3.7),(Eu:0.38),(Gd:2.89),(Tb:0.35),(Dy:1.21),(Pb:0.25),(Th:9.7),(U:0.16),5.0
##DET_HASH   : 12273538-fd48-a23f-0a19-f1e6fa85caef
##CALIB_HASH : 6abaa72c-aa41-8738-0be9-f592914732f3
##WORKING    : 15.0 mm
##DET_NAME   : EDAX All
##DET_MODE   : MediumLE
#SPECTRUM    :
32,
423,
17620,
7984,
40584,
9319,
10626,
9149,
7416,
6502,
5859,
5663,
7442,
7218,
36124,
12700,
5190,
5921,
5367,
5340,
5253,
11620,
11109,
7920,
6131,
4758,
6079,
4809,
4578,
4744,
4491,
4538,
4313,
13043,
13563,
17037,
11869,
15298,
15488,
6289,
10805,
9445,
4313,
6909,
5499,
4275,
3599,
4070,
3395,
2762,
2698,
2788,
2385,
2403,
2258,
2219,
2112,
1918,
1967,
1842,
1778,
1782,
1673,
1693,
1629,
1611,
1478,
1535,
1436,
1445,
1377,
1287,
1275,
1277,
1244,
1203,
1156,
1083,
1117,
1122,
1060,
986,
919,
921,
926,
851,
810,
758,
785,
737,
726,
767,
812,
729,
565,
558,
551,
510,
515,
459,
484,
468,
423,
435,
405,
340,
349,
384,
308,
300,
286,
302,
277,
229,
223,
221,
205,
190,
194,
170,
153,
146,
145,
125,
121,
117,
102,
93,
76,
80,
88,
60,
51,
53,
59,
41,
38,
36,
28,
16,
17,
11,
3,
2,
4,
3,
0,
1,
1,
1,
1,
1,
1,
1,
0,
0,
1,
1,
1,
1,
1,
0,
0,
0,
2,
0,
1,
2,
0,
0,
0,
0,
0,
0,
0,
0,
0,
0,
0,
1,
0,
1,
1,
1,
0,
0,
0,
0,
1,
0,
0,
0,
0,
0,
0,
0,
0,
0,
0,
0,
0,
0,
0,
0,
0,
0,
0,
0,
0,
0,
0,
0,
0,
0,
1,
0,
0,
0,
0,
0,
0,
0,
0,
0,
0,
0,
0,
0,
0,
0,
0,
0,
0,
0,
0,
0,
0,
0,
0,
0,
0,
0,
0,
0,
0,
0,
0,
0,
0,
0,
0,
0,
0,
0,
0,
0,
0,
0,
0,
0,
0,
0,
0,
0,
0,
0,
0,
0,
0,
0,
0,
0,
0,
0,
0,
0,
0,
0,
0,
0,
0,
0,
0,
0,
0,
0,
0,
0,
0,
0,
0,
0,
0,
0,
#ENDOFDATA   :