File: N132962/Quantification/20 keV/MMM2/SPI MM2 Scheelite[4][4].msa
#FORMAT      : EMSA/MAS Spectral Data File
#VERSION     : 1.0
#TITLE       : SPI MM2 Scheelite[4][all]
#DATE        : 13-MAR-2025
#TIME        : 12:16
#OWNER       : Unknown
#NPOINTS     : 4096
#NCOLUMNS    : 1
#XUNITS      : eV
#YUNITS      : counts
#DATATYPE    : Y
#XPERCHAN    : 9.99778
#OFFSET      : 1.69135
#BEAMKV      : 20
#SIGNALTYPE  : EDS
#ELEVANGLE   : 35
#AZIMANGLE   : 0
#LIVETIME    : 239.94
#REALTIME    : 263.084
#PROBECUR    : 1.02616
#TAUWIND     : 0
#TDEADLYR    : 0
#TACTLYR     : 0.045
#TALWIND     : 0.025
#CHOFFSET    : 0.0
#XLABEL      : Energy (eV)
#YLABEL      : Counts
#XPOSITION   : -2.80104
#YPOSITION   : 1.94187
#ZPOSITION   : 31.03511
#EDSDET      : SD
##SPECIMEN   : SPI MM2 Scheelite[4][all]
##DET_HASH   : 12273538-fd48-a23f-0a19-f1e6fa85caef
##CALIB_HASH : 6abaa72c-aa41-8738-0be9-f592914732f3
##WORKING    : 15.0 mm
##DET_NAME   : EDAX All
##DET_MODE   : MediumLE
#SPECTRUM    :
39,
526,
17859,
4823,
20281,
5093,
6376,
6836,
7814,
8723,
21187,
10062,
21427,
181956,
7335,
6081,
5689,
5549,
4812,
4826,
4969,
4861,
4800,
5002,
4858,
5225,
37369,
15020,
6147,
9479,
4333,
4180,
4204,
4203,
4274,
4046,
4052,
4015,
3769,
3905,
3691,
3590,
3460,
3359,
3448,
3298,
3531,
3189,
3093,
3017,
2889,
2871,
3144,
3921,
2737,
2605,
2607,
2457,
2517,
6854,
27671,
4280,
2465,
2207,
2064,
1982,
1947,
2095,
3981,
10801,
4679,
6360,
2789,
1813,
1488,
1392,
1311,
1262,
1356,
1330,
2014,
2230,
1367,
1497,
1253,
1097,
1055,
962,
935,
934,
857,
798,
775,
809,
662,
710,
712,
640,
646,
606,
583,
554,
514,
476,
472,
428,
431,
424,
398,
372,
375,
332,
289,
307,
285,
250,
264,
233,
229,
227,
219,
184,
176,
176,
142,
123,
122,
127,
135,
107,
115,
99,
90,
81,
59,
47,
49,
36,
32,
23,
20,
20,
7,
4,
4,
0,
3,
4,
5,
4,
2,
1,
1,
1,
2,
2,
2,
2,
3,
3,
1,
0,
3,
3,
1,
0,
1,
1,
1,
3,
0,
0,
1,
2,
0,
1,
2,
1,
1,
1,
0,
1,
2,
0,
0,
0,
1,
2,
0,
0,
2,
1,
0,
2,
0,
0,
1,
0,
0,
0,
0,
0,
0,
0,
0,
0,
0,
1,
0,
0,
0,
0,
0,
0,
1,
0,
0,
0,
0,
0,
0,
0,
0,
0,
0,
0,
0,
0,
0,
0,
0,
0,
0,
0,
0,
0,
0,
0,
0,
0,
0,
0,
0,
0,
0,
0,
0,
0,
0,
0,
0,
0,
0,
0,
0,
0,
0,
0,
0,
0,
0,
0,
0,
0,
0,
0,
0,
0,
0,
0,
0,
0,
0,
0,
0,
0,
0,
0,
0,
0,
0,
0,
0,
0,
0,
0,
0,
0,
0,
0,
0,
0,
0,
0,
#ENDOFDATA   :