File: N132962/Quantification/20 keV/MMM2/SPI MM2 Uvarovite[6][4].msa
#FORMAT      : EMSA/MAS Spectral Data File
#VERSION     : 1.0
#TITLE       : SPI MM2 Uvarovite[6][all]
#DATE        : 13-MAR-2025
#TIME        : 14:19
#OWNER       : Unknown
#NPOINTS     : 4096
#NCOLUMNS    : 1
#XUNITS      : eV
#YUNITS      : counts
#DATATYPE    : Y
#XPERCHAN    : 9.99778
#OFFSET      : 1.69135
#BEAMKV      : 20
#SIGNALTYPE  : EDS
#ELEVANGLE   : 35
#AZIMANGLE   : 0
#LIVETIME    : 239.837
#REALTIME    : 255.333
#PROBECUR    : 1.02609
#TAUWIND     : 0
#TDEADLYR    : 0
#TACTLYR     : 0.045
#TALWIND     : 0.025
#CHOFFSET    : 0.0
#XLABEL      : Energy (eV)
#YLABEL      : Counts
#XPOSITION   : 5.724
#YPOSITION   : 6.36206
#ZPOSITION   : 31.03511
#EDSDET      : SD
##SPECIMEN   : SPI MM2 Uvarovite[6][all]
##DET_HASH   : 12273538-fd48-a23f-0a19-f1e6fa85caef
##CALIB_HASH : 6abaa72c-aa41-8738-0be9-f592914732f3
##WORKING    : 15.0 mm
##DET_NAME   : EDAX All
##DET_MODE   : MediumLE
#SPECTRUM    :
21,
222,
13557,
4134,
31928,
2813,
2398,
2935,
3497,
4257,
6022,
13075,
43506,
21709,
4630,
3303,
3612,
3275,
3183,
3110,
3139,
2890,
2948,
2979,
2800,
3307,
64299,
22194,
4806,
11423,
2005,
1825,
4078,
1906,
1705,
2285,
1745,
1686,
8980,
22285,
1536,
1433,
3652,
2856,
1174,
1629,
2536,
1147,
1060,
1046,
1156,
1035,
955,
978,
907,
880,
798,
808,
754,
764,
764,
724,
702,
676,
673,
640,
593,
590,
580,
565,
551,
547,
437,
479,
480,
452,
450,
413,
401,
379,
385,
365,
345,
332,
305,
281,
295,
274,
275,
267,
236,
222,
219,
213,
180,
200,
156,
187,
177,
162,
144,
139,
146,
140,
120,
120,
120,
92,
102,
92,
75,
87,
78,
60,
48,
65,
64,
41,
57,
46,
32,
41,
33,
32,
31,
31,
31,
18,
25,
16,
12,
17,
21,
9,
7,
10,
8,
5,
6,
2,
1,
2,
4,
0,
0,
0,
0,
1,
1,
0,
0,
0,
1,
0,
0,
0,
0,
0,
0,
0,
1,
1,
0,
0,
0,
0,
0,
0,
0,
1,
0,
0,
0,
0,
0,
0,
0,
0,
0,
0,
0,
0,
0,
0,
0,
0,
0,
0,
0,
0,
0,
0,
0,
0,
0,
0,
0,
0,
0,
0,
0,
0,
0,
0,
0,
0,
0,
0,
0,
0,
0,
0,
0,
0,
0,
0,
0,
0,
0,
0,
0,
0,
0,
0,
0,
0,
0,
0,
0,
0,
0,
0,
0,
0,
0,
0,
0,
0,
0,
0,
0,
0,
0,
0,
0,
0,
0,
0,
0,
0,
0,
0,
0,
0,
0,
0,
0,
0,
0,
0,
0,
0,
0,
0,
0,
0,
0,
0,
0,
0,
0,
0,
0,
0,
0,
0,
0,
0,
0,
0,
0,
0,
0,
0,
0,
0,
0,
0,
0,
0,
0,
0,
0,
0,
#ENDOFDATA   :