File: N132962/Quantification/20 keV/MMM2/SPI MM2 Spessartine[1][4].msa
#FORMAT      : EMSA/MAS Spectral Data File
#VERSION     : 1.0
#TITLE       : SPI MM2 Spessartine[1][all]
#DATE        : 13-MAR-2025
#TIME        : 12:04
#OWNER       : Unknown
#NPOINTS     : 4096
#NCOLUMNS    : 1
#XUNITS      : eV
#YUNITS      : counts
#DATATYPE    : Y
#XPERCHAN    : 9.99778
#OFFSET      : 1.69135
#BEAMKV      : 20
#SIGNALTYPE  : EDS
#ELEVANGLE   : 35
#AZIMANGLE   : 0
#LIVETIME    : 239.862
#REALTIME    : 256.243
#PROBECUR    : 1.02616
#TAUWIND     : 0
#TDEADLYR    : 0
#TACTLYR     : 0.045
#TALWIND     : 0.025
#CHOFFSET    : 0.0
#XLABEL      : Energy (eV)
#YLABEL      : Counts
#XPOSITION   : -5.83328
#YPOSITION   : 1.52392
#ZPOSITION   : 31.03511
#EDSDET      : SD
##SPECIMEN   : SPI MM2 Spessartine[1][all]
##DET_HASH   : 12273538-fd48-a23f-0a19-f1e6fa85caef
##CALIB_HASH : 6abaa72c-aa41-8738-0be9-f592914732f3
##WORKING    : 15.0 mm
##DET_NAME   : EDAX All
##DET_MODE   : MediumLE
#SPECTRUM    :
17,
198,
9783,
7747,
71322,
5230,
2266,
2750,
3437,
3909,
8894,
30344,
37192,
18463,
3291,
3108,
3425,
3126,
3047,
3007,
2967,
2999,
2814,
2936,
2691,
2734,
3222,
2709,
2303,
2418,
2442,
2129,
2104,
2080,
1956,
1869,
1761,
1720,
1694,
1630,
1653,
3434,
69868,
7128,
1426,
2097,
9555,
3741,
1103,
1052,
1246,
1067,
973,
1013,
997,
917,
832,
838,
796,
769,
737,
771,
699,
690,
643,
614,
631,
591,
569,
610,
586,
561,
491,
486,
511,
481,
454,
447,
386,
421,
411,
389,
333,
322,
372,
314,
308,
284,
304,
260,
269,
238,
216,
218,
220,
205,
209,
206,
168,
183,
181,
178,
143,
117,
125,
122,
111,
111,
109,
92,
99,
81,
94,
80,
71,
63,
59,
62,
53,
55,
49,
48,
41,
41,
49,
40,
39,
26,
23,
28,
21,
17,
24,
12,
19,
13,
3,
7,
8,
6,
6,
4,
1,
2,
0,
0,
1,
0,
1,
1,
0,
0,
1,
0,
0,
0,
0,
0,
1,
0,
0,
0,
0,
0,
0,
0,
0,
0,
0,
0,
0,
0,
0,
0,
0,
0,
0,
0,
0,
0,
0,
0,
0,
0,
0,
0,
0,
0,
0,
0,
0,
0,
0,
0,
0,
0,
0,
0,
0,
0,
0,
0,
0,
0,
0,
0,
0,
0,
0,
0,
0,
0,
0,
0,
0,
0,
0,
0,
1,
0,
0,
0,
0,
0,
0,
0,
0,
0,
0,
0,
0,
0,
0,
0,
0,
0,
0,
0,
0,
0,
0,
0,
0,
0,
0,
0,
0,
0,
0,
0,
0,
0,
0,
0,
0,
0,
0,
0,
0,
0,
0,
0,
0,
0,
0,
0,
0,
0,
0,
0,
0,
0,
0,
0,
0,
0,
0,
0,
0,
0,
0,
0,
0,
0,
0,
0,
0,
0,
0,
0,
0,
0,
0,
0,
#ENDOFDATA   :