File: N132962/Quantification/20 keV/MMM2/SPI MM2 Willemite[4][4].msa
#FORMAT      : EMSA/MAS Spectral Data File
#VERSION     : 1.0
#TITLE       : SPI MM2 Willemite[4][all]
#DATE        : 13-MAR-2025
#TIME        : 14:07
#OWNER       : Unknown
#NPOINTS     : 4096
#NCOLUMNS    : 1
#XUNITS      : eV
#YUNITS      : counts
#DATATYPE    : Y
#XPERCHAN    : 9.99778
#OFFSET      : 1.69135
#BEAMKV      : 20
#SIGNALTYPE  : EDS
#ELEVANGLE   : 35
#AZIMANGLE   : 0
#LIVETIME    : 239.802
#REALTIME    : 257.45
#PROBECUR    : 1.02609
#TAUWIND     : 0
#TDEADLYR    : 0
#TACTLYR     : 0.045
#TALWIND     : 0.025
#CHOFFSET    : 0.0
#XLABEL      : Energy (eV)
#YLABEL      : Counts
#XPOSITION   : 2.81352
#YPOSITION   : 6.24404
#ZPOSITION   : 31.03512
#EDSDET      : SD
##SPECIMEN   : SPI MM2 Willemite[4][all]
##DET_HASH   : 12273538-fd48-a23f-0a19-f1e6fa85caef
##CALIB_HASH : 6abaa72c-aa41-8738-0be9-f592914732f3
##WORKING    : 15.0 mm
##DET_NAME   : EDAX All
##DET_MODE   : MediumLE
#SPECTRUM    :
31,
266,
11770,
5954,
41991,
4802,
11634,
143334,
5968,
4810,
3350,
4259,
24408,
13290,
3603,
3578,
3724,
3650,
3609,
3773,
3856,
3552,
3563,
3530,
3371,
3348,
3250,
3091,
3037,
2924,
2838,
2762,
2763,
2621,
2530,
2454,
2405,
2339,
2245,
2150,
2149,
2187,
8801,
2520,
1796,
1889,
2694,
1957,
1632,
1653,
1631,
1458,
1428,
1584,
1398,
1291,
1314,
1277,
1181,
1264,
1448,
20154,
34258,
1752,
1018,
1057,
967,
1261,
5788,
3275,
822,
758,
693,
695,
739,
666,
633,
603,
629,
565,
585,
507,
518,
476,
470,
446,
470,
427,
401,
418,
400,
385,
358,
341,
315,
304,
312,
277,
243,
249,
250,
230,
236,
208,
190,
189,
187,
178,
171,
143,
144,
145,
150,
147,
116,
108,
84,
106,
90,
89,
98,
55,
71,
80,
57,
53,
48,
38,
42,
40,
29,
48,
27,
13,
22,
20,
19,
17,
2,
8,
8,
4,
5,
3,
4,
0,
1,
0,
1,
1,
0,
1,
1,
0,
0,
0,
0,
0,
2,
0,
0,
0,
2,
1,
0,
0,
0,
1,
0,
0,
0,
0,
0,
0,
0,
0,
0,
0,
0,
0,
0,
0,
0,
0,
0,
0,
1,
0,
0,
0,
0,
0,
0,
0,
0,
0,
0,
0,
0,
0,
0,
0,
0,
0,
1,
0,
0,
0,
0,
0,
0,
0,
0,
0,
0,
0,
0,
0,
0,
0,
0,
0,
0,
0,
0,
0,
0,
0,
0,
0,
0,
0,
0,
0,
0,
0,
0,
0,
0,
0,
0,
0,
0,
0,
0,
0,
0,
0,
0,
0,
0,
0,
0,
0,
0,
0,
0,
0,
0,
0,
0,
0,
0,
0,
0,
0,
0,
0,
0,
0,
0,
0,
0,
0,
0,
0,
0,
0,
0,
0,
0,
0,
0,
0,
0,
0,
0,
0,
0,
0,
0,
0,
0,
0,
#ENDOFDATA   :