File: N132962/Quantification/20 keV/MMM2/SPI MM2 Wollastonite[2][4].msa
#FORMAT      : EMSA/MAS Spectral Data File
#VERSION     : 1.0
#TITLE       : SPI MM2 Wollastonite[2][all]
#DATE        : 13-MAR-2025
#TIME        : 13:56
#OWNER       : Unknown
#NPOINTS     : 4096
#NCOLUMNS    : 1
#XUNITS      : eV
#YUNITS      : counts
#DATATYPE    : Y
#XPERCHAN    : 9.99778
#OFFSET      : 1.69135
#BEAMKV      : 20
#SIGNALTYPE  : EDS
#ELEVANGLE   : 35
#AZIMANGLE   : 0
#LIVETIME    : 239.806
#REALTIME    : 256.108
#PROBECUR    : 1.0264
#TAUWIND     : 0
#TDEADLYR    : 0
#TACTLYR     : 0.045
#TALWIND     : 0.025
#CHOFFSET    : 0.0
#XLABEL      : Energy (eV)
#YLABEL      : Counts
#XPOSITION   : -0.05192
#YPOSITION   : 6.24196
#ZPOSITION   : 31.03511
#EDSDET      : SD
##SPECIMEN   : SPI MM2 Wollastonite[2][all]
##DET_HASH   : 12273538-fd48-a23f-0a19-f1e6fa85caef
##CALIB_HASH : 6abaa72c-aa41-8738-0be9-f592914732f3
##WORKING    : 15.0 mm
##DET_NAME   : EDAX All
##DET_MODE   : MediumLE
#SPECTRUM    :
31,
175,
13875,
3012,
24032,
2076,
2678,
3118,
3701,
4331,
4692,
5630,
66364,
31415,
4906,
3257,
3431,
3135,
3003,
2997,
2892,
2831,
2733,
2693,
2520,
3607,
86881,
29233,
5914,
14623,
1856,
1620,
1589,
1610,
1513,
1539,
1389,
1526,
1401,
1735,
1254,
1327,
1405,
1187,
1199,
1157,
1149,
1030,
1063,
974,
925,
872,
895,
1036,
882,
858,
808,
808,
713,
714,
702,
643,
677,
667,
586,
566,
545,
551,
543,
510,
482,
458,
495,
462,
473,
463,
384,
375,
368,
353,
343,
320,
345,
337,
296,
285,
255,
249,
230,
254,
238,
214,
222,
196,
186,
190,
173,
162,
168,
142,
120,
161,
127,
127,
126,
127,
98,
102,
83,
105,
92,
71,
86,
61,
56,
58,
51,
57,
52,
45,
39,
33,
33,
35,
30,
27,
20,
30,
19,
19,
27,
17,
11,
15,
6,
11,
9,
8,
5,
4,
2,
4,
1,
0,
0,
0,
0,
1,
0,
0,
0,
2,
0,
0,
0,
0,
0,
0,
1,
0,
0,
0,
0,
0,
0,
0,
0,
0,
0,
0,
0,
0,
0,
0,
0,
0,
0,
0,
0,
0,
0,
0,
0,
0,
0,
0,
0,
0,
0,
0,
0,
0,
0,
0,
0,
0,
0,
0,
0,
0,
0,
0,
0,
0,
0,
0,
0,
0,
0,
0,
0,
0,
0,
0,
0,
0,
0,
0,
0,
0,
0,
0,
0,
0,
0,
0,
0,
0,
0,
0,
0,
0,
0,
0,
0,
0,
0,
0,
0,
0,
0,
0,
0,
0,
0,
0,
0,
0,
0,
0,
0,
0,
0,
0,
0,
0,
0,
0,
0,
0,
0,
0,
0,
0,
0,
0,
0,
0,
0,
0,
0,
0,
0,
0,
0,
0,
0,
0,
0,
0,
0,
0,
0,
0,
0,
0,
0,
0,
0,
0,
0,
0,
0,
0,
#ENDOFDATA   :