File: N132962/Quantification/20 keV/MMM2/SPI MM2 SPI Molybdenite[2][4].msa
#FORMAT      : EMSA/MAS Spectral Data File
#VERSION     : 1.0
#TITLE       : SPI MM2 SPI Molybdenite[2][all]
#DATE        : 13-MAR-2025
#TIME        : 10:15
#OWNER       : Unknown
#NPOINTS     : 4096
#NCOLUMNS    : 1
#XUNITS      : eV
#YUNITS      : counts
#DATATYPE    : Y
#XPERCHAN    : 9.99778
#OFFSET      : 1.69135
#BEAMKV      : 20
#SIGNALTYPE  : EDS
#ELEVANGLE   : 35
#AZIMANGLE   : 0
#LIVETIME    : 239.737
#REALTIME    : 266.349
#PROBECUR    : 1.02627
#TAUWIND     : 0
#TDEADLYR    : 0
#TACTLYR     : 0.045
#TALWIND     : 0.025
#CHOFFSET    : 0.0
#XLABEL      : Energy (eV)
#YLABEL      : Counts
#XPOSITION   : 5.94302
#YPOSITION   : -2.9238
#ZPOSITION   : 31.03509
#EDSDET      : SD
##SPECIMEN   : SPI MM2 SPI Molybdenite[2][all]
##D2STDCMP   : SPI Molybdenite,(S:39.84),(Mo:59.29),5.0
##DET_HASH   : 12273538-fd48-a23f-0a19-f1e6fa85caef
##CALIB_HASH : 6abaa72c-aa41-8738-0be9-f592914732f3
##WORKING    : 15.0 mm
##DET_NAME   : EDAX All
##DET_MODE   : MediumLE
#SPECTRUM    :
25,
2567,
14919,
2532,
15031,
5756,
5830,
6540,
7490,
8106,
8699,
9111,
9388,
9364,
11820,
12609,
183870,
172105,
24442,
4312,
4232,
3188,
3127,
3328,
3330,
3346,
3245,
3437,
3265,
3328,
3377,
3409,
3498,
4782,
3574,
3191,
2995,
2818,
2860,
2827,
2741,
2632,
2536,
2502,
2478,
2561,
2725,
2282,
2173,
2102,
2185,
2086,
2041,
2010,
1957,
1822,
1804,
1713,
1688,
1674,
1636,
1589,
1467,
1472,
1448,
1400,
1388,
1262,
1279,
1234,
1201,
1174,
1065,
1155,
1090,
1064,
975,
1002,
956,
942,
894,
827,
814,
794,
744,
737,
721,
718,
591,
655,
587,
594,
509,
529,
521,
504,
450,
466,
439,
413,
378,
390,
330,
275,
333,
327,
260,
273,
261,
228,
233,
227,
184,
190,
224,
169,
186,
129,
130,
143,
129,
133,
130,
93,
92,
89,
94,
90,
64,
72,
44,
50,
36,
44,
34,
35,
29,
16,
16,
14,
14,
6,
2,
1,
1,
2,
3,
2,
1,
2,
0,
0,
1,
2,
2,
1,
1,
2,
1,
0,
1,
0,
0,
0,
0,
0,
2,
0,
0,
0,
0,
1,
0,
0,
0,
1,
0,
0,
1,
0,
0,
0,
0,
0,
0,
0,
1,
0,
0,
0,
0,
0,
1,
1,
0,
0,
0,
0,
0,
0,
0,
0,
0,
0,
0,
0,
0,
0,
0,
0,
0,
0,
0,
0,
0,
1,
0,
0,
0,
0,
0,
0,
0,
0,
0,
0,
0,
0,
0,
0,
0,
0,
0,
0,
0,
0,
0,
0,
0,
0,
0,
0,
0,
0,
0,
0,
0,
0,
0,
0,
0,
0,
0,
0,
0,
0,
0,
0,
0,
0,
0,
0,
0,
0,
0,
0,
0,
0,
0,
0,
0,
0,
0,
0,
0,
0,
0,
0,
0,
0,
0,
0,
0,
0,
0,
0,
0,
0,
0,
0,
0,
0,
0,
0,
#ENDOFDATA   :