File: N132962/Quantification/20 keV/MMM2/SPI MM2 Sphodumene[1][4].msa
#FORMAT      : EMSA/MAS Spectral Data File
#VERSION     : 1.0
#TITLE       : SPI MM2 Sphodumene[1][all]
#DATE        : 13-MAR-2025
#TIME        : 13:08
#OWNER       : Unknown
#NPOINTS     : 4096
#NCOLUMNS    : 1
#XUNITS      : eV
#YUNITS      : counts
#DATATYPE    : Y
#XPERCHAN    : 9.99778
#OFFSET      : 1.69135
#BEAMKV      : 20
#SIGNALTYPE  : EDS
#ELEVANGLE   : 35
#AZIMANGLE   : 0
#LIVETIME    : 239.8389
#REALTIME    : 255.792
#PROBECUR    : 1.0263
#TAUWIND     : 0
#TDEADLYR    : 0
#TACTLYR     : 0.045
#TALWIND     : 0.025
#CHOFFSET    : 0.0
#XLABEL      : Energy (eV)
#YLABEL      : Counts
#XPOSITION   : 3.39114
#YPOSITION   : 3.49687
#ZPOSITION   : 31.03511
#EDSDET      : SD
##SPECIMEN   : SPI MM2 Sphodumene[1][all]
##DET_HASH   : 12273538-fd48-a23f-0a19-f1e6fa85caef
##CALIB_HASH : 6abaa72c-aa41-8738-0be9-f592914732f3
##WORKING    : 15.0 mm
##DET_NAME   : EDAX All
##DET_MODE   : MediumLE
#SPECTRUM    :
31,
199,
8350,
6618,
70619,
1821,
2343,
3243,
3591,
4211,
12378,
48140,
69223,
32786,
2130,
1996,
2752,
2087,
2074,
2041,
2038,
2146,
1880,
2246,
1887,
2087,
1771,
1650,
1571,
1540,
1416,
1366,
1343,
1367,
1291,
1311,
1217,
1162,
1099,
1075,
1015,
1005,
960,
922,
896,
878,
946,
808,
819,
776,
747,
720,
647,
650,
650,
617,
580,
527,
538,
518,
520,
522,
469,
467,
440,
438,
422,
414,
430,
359,
315,
365,
330,
329,
316,
339,
297,
271,
262,
240,
259,
243,
209,
236,
201,
188,
197,
170,
150,
178,
168,
152,
140,
127,
144,
138,
111,
109,
120,
108,
98,
78,
81,
77,
84,
79,
72,
70,
63,
47,
52,
47,
44,
49,
46,
45,
36,
35,
37,
38,
24,
22,
24,
24,
18,
26,
23,
18,
13,
9,
10,
8,
12,
8,
7,
5,
9,
1,
3,
1,
0,
4,
2,
0,
0,
0,
0,
0,
0,
0,
0,
0,
0,
0,
0,
0,
0,
0,
0,
0,
0,
0,
0,
0,
0,
0,
0,
0,
0,
0,
0,
0,
0,
0,
0,
0,
0,
0,
0,
0,
0,
0,
0,
0,
0,
0,
0,
0,
0,
0,
0,
0,
0,
0,
0,
0,
0,
0,
0,
0,
0,
0,
0,
0,
0,
0,
0,
0,
0,
0,
0,
0,
0,
0,
0,
0,
0,
0,
0,
0,
0,
0,
0,
0,
0,
0,
0,
0,
0,
0,
0,
0,
0,
0,
0,
0,
0,
0,
0,
0,
0,
0,
0,
0,
0,
0,
0,
0,
0,
0,
0,
0,
0,
0,
0,
0,
0,
0,
0,
0,
0,
0,
0,
0,
0,
0,
0,
0,
0,
0,
0,
0,
0,
0,
0,
0,
0,
0,
0,
0,
0,
0,
0,
0,
0,
0,
0,
0,
0,
0,
0,
0,
0,
0,
#ENDOFDATA   :