File: N132962/Quantification/20 keV/MMM2/SPI MM2 Rhodonite[1][4].msa
#FORMAT      : EMSA/MAS Spectral Data File
#VERSION     : 1.0
#TITLE       : SPI MM2 Rhodonite[1][all]
#DATE        : 13-MAR-2025
#TIME        : 12:22
#OWNER       : Unknown
#NPOINTS     : 4096
#NCOLUMNS    : 1
#XUNITS      : eV
#YUNITS      : counts
#DATATYPE    : Y
#XPERCHAN    : 9.99778
#OFFSET      : 1.69135
#BEAMKV      : 20
#SIGNALTYPE  : EDS
#ELEVANGLE   : 35
#AZIMANGLE   : 0
#LIVETIME    : 239.589
#REALTIME    : 255.529
#PROBECUR    : 1.02616
#TAUWIND     : 0
#TDEADLYR    : 0
#TACTLYR     : 0.045
#TALWIND     : 0.025
#CHOFFSET    : 0.0
#XLABEL      : Energy (eV)
#YLABEL      : Counts
#XPOSITION   : 0.05495
#YPOSITION   : 1.2317
#ZPOSITION   : 31.03511
#EDSDET      : SD
##SPECIMEN   : SPI MM2 Rhodonite[1][all]
##DET_HASH   : 12273538-fd48-a23f-0a19-f1e6fa85caef
##CALIB_HASH : 6abaa72c-aa41-8738-0be9-f592914732f3
##WORKING    : 15.0 mm
##DET_NAME   : EDAX All
##DET_MODE   : MediumLE
#SPECTRUM    :
21,
210,
11078,
6628,
59689,
5681,
2208,
2759,
3143,
9052,
4628,
8107,
50551,
24465,
3157,
2998,
3432,
3113,
3173,
3030,
2988,
2972,
2825,
2835,
2617,
2791,
10545,
4991,
2777,
3563,
2415,
2079,
2044,
1961,
1919,
1905,
1784,
1720,
1708,
1669,
1632,
3398,
66089,
6701,
1514,
3036,
12362,
3519,
1118,
1135,
1509,
1235,
962,
978,
987,
951,
873,
846,
856,
781,
783,
728,
745,
717,
722,
680,
662,
584,
624,
596,
579,
512,
514,
511,
469,
483,
436,
475,
435,
448,
379,
413,
340,
374,
361,
323,
328,
298,
309,
263,
263,
241,
208,
244,
229,
202,
218,
164,
181,
163,
168,
152,
133,
142,
123,
150,
128,
114,
107,
124,
91,
76,
84,
81,
68,
69,
60,
59,
58,
52,
42,
47,
41,
45,
41,
37,
32,
31,
28,
24,
15,
20,
20,
14,
9,
10,
9,
8,
9,
3,
3,
1,
1,
0,
0,
0,
0,
0,
2,
0,
0,
0,
0,
0,
0,
1,
2,
0,
0,
0,
0,
0,
0,
0,
1,
0,
0,
0,
0,
0,
1,
0,
0,
0,
0,
0,
0,
0,
0,
0,
0,
0,
1,
0,
0,
0,
0,
0,
0,
0,
0,
0,
0,
0,
0,
0,
0,
0,
0,
0,
0,
0,
0,
0,
0,
0,
0,
0,
0,
0,
0,
0,
0,
0,
0,
0,
0,
0,
0,
0,
0,
0,
0,
0,
0,
0,
0,
0,
0,
0,
0,
0,
0,
0,
0,
0,
0,
0,
0,
0,
0,
0,
0,
0,
0,
0,
0,
0,
0,
0,
0,
0,
0,
0,
0,
0,
0,
0,
0,
0,
0,
0,
0,
0,
0,
0,
0,
0,
0,
0,
0,
0,
0,
0,
0,
0,
0,
0,
0,
0,
0,
0,
0,
0,
0,
0,
0,
0,
0,
0,
0,
0,
0,
0,
#ENDOFDATA   :