File: N132962/Quantification/20 keV/MMM2/SPI MM2 C[6][4].msa
#FORMAT      : EMSA/MAS Spectral Data File
#VERSION     : 1.0
#TITLE       : SPI MM2 C[6][all]
#DATE        : 13-MAR-2025
#TIME        : 14:28
#OWNER       : Unknown
#NPOINTS     : 4096
#NCOLUMNS    : 1
#XUNITS      : eV
#YUNITS      : counts
#DATATYPE    : Y
#XPERCHAN    : 9.99778
#OFFSET      : 1.69135
#BEAMKV      : 20
#SIGNALTYPE  : EDS
#ELEVANGLE   : 35
#AZIMANGLE   : 0
#LIVETIME    : 240.017
#REALTIME    : 250.916
#PROBECUR    : 1.02609
#TAUWIND     : 0
#TDEADLYR    : 0
#TACTLYR     : 0.045
#TALWIND     : 0.025
#CHOFFSET    : 0.0
#XLABEL      : Energy (eV)
#YLABEL      : Counts
#XPOSITION   : 3.27774
#YPOSITION   : 8.96736
#ZPOSITION   : 31.03511
#EDSDET      : SD
##SPECIMEN   : SPI MM2 C[6][all]
##D2STDCMP   : C,(C:100.0)
##DET_HASH   : 12273538-fd48-a23f-0a19-f1e6fa85caef
##CALIB_HASH : 6abaa72c-aa41-8738-0be9-f592914732f3
##WORKING    : 15.0 mm
##DET_NAME   : EDAX All
##DET_MODE   : MediumLE
#SPECTRUM    :
14,
969,
444556,
555,
2295,
1200,
1582,
1976,
2355,
2400,
2627,
2681,
2657,
2390,
1960,
1923,
1817,
1737,
1636,
1443,
1367,
1382,
1267,
1217,
1103,
1005,
1025,
966,
863,
854,
849,
794,
727,
716,
697,
646,
630,
598,
557,
506,
495,
478,
474,
467,
456,
453,
468,
388,
355,
364,
369,
353,
305,
328,
279,
281,
262,
251,
284,
272,
237,
238,
242,
188,
192,
199,
191,
175,
152,
163,
159,
154,
168,
142,
134,
139,
143,
130,
128,
109,
123,
103,
104,
117,
82,
77,
84,
83,
62,
65,
62,
74,
67,
61,
59,
61,
53,
43,
39,
35,
51,
25,
31,
28,
32,
30,
22,
28,
25,
20,
20,
15,
19,
12,
17,
19,
14,
11,
12,
14,
9,
13,
8,
8,
7,
7,
5,
9,
6,
6,
2,
3,
6,
2,
2,
5,
3,
1,
0,
1,
0,
1,
0,
0,
0,
0,
0,
0,
0,
0,
0,
0,
0,
0,
0,
0,
0,
0,
0,
0,
0,
0,
0,
0,
0,
0,
0,
0,
0,
0,
0,
0,
0,
0,
0,
0,
0,
0,
0,
0,
0,
0,
0,
0,
0,
0,
0,
0,
0,
0,
0,
0,
0,
0,
0,
0,
0,
0,
0,
0,
0,
0,
0,
0,
0,
0,
0,
0,
0,
0,
0,
0,
0,
0,
0,
0,
0,
0,
0,
0,
0,
0,
0,
0,
0,
0,
0,
0,
0,
0,
0,
0,
0,
0,
0,
0,
0,
0,
0,
0,
0,
0,
0,
0,
0,
0,
0,
0,
0,
0,
0,
0,
0,
0,
0,
0,
0,
0,
0,
0,
0,
0,
0,
0,
0,
0,
0,
0,
0,
0,
0,
0,
0,
0,
0,
0,
0,
0,
0,
0,
0,
0,
0,
0,
0,
0,
0,
0,
0,
0,
0,
0,
0,
0,
#ENDOFDATA   :