File: N132962/Quantification/20 keV/MMM2/SPI MM2 Stibnite[1][4].msa
#FORMAT      : EMSA/MAS Spectral Data File
#VERSION     : 1.0
#TITLE       : SPI MM2 Stibnite[1][all]
#DATE        : 13-MAR-2025
#TIME        : 13:17
#OWNER       : Unknown
#NPOINTS     : 4096
#NCOLUMNS    : 1
#XUNITS      : eV
#YUNITS      : counts
#DATATYPE    : Y
#XPERCHAN    : 9.99778
#OFFSET      : 1.69135
#BEAMKV      : 20
#SIGNALTYPE  : EDS
#ELEVANGLE   : 35
#AZIMANGLE   : 0
#LIVETIME    : 239.927
#REALTIME    : 263.398
#PROBECUR    : 1.0263
#TAUWIND     : 0
#TDEADLYR    : 0
#TACTLYR     : 0.045
#TALWIND     : 0.025
#CHOFFSET    : 0.0
#XLABEL      : Energy (eV)
#YLABEL      : Counts
#XPOSITION   : 1.52422
#YPOSITION   : 4.41016
#ZPOSITION   : 31.03511
#EDSDET      : SD
##SPECIMEN   : SPI MM2 Stibnite[1][all]
##DET_HASH   : 12273538-fd48-a23f-0a19-f1e6fa85caef
##CALIB_HASH : 6abaa72c-aa41-8738-0be9-f592914732f3
##WORKING    : 15.0 mm
##DET_NAME   : EDAX All
##DET_MODE   : MediumLE
#SPECTRUM    :
34,
2034,
16878,
16232,
9536,
5403,
4860,
4726,
5258,
6099,
6934,
7376,
7917,
8941,
7464,
8571,
60434,
48102,
11840,
5609,
5697,
5570,
5817,
9379,
6149,
17560,
105070,
27747,
39614,
17660,
7167,
10068,
4026,
6431,
3442,
3272,
3205,
3139,
3132,
3258,
3058,
3051,
3165,
3014,
3012,
3001,
3149,
2668,
2633,
2571,
2470,
2480,
2457,
2650,
2366,
2238,
2218,
2036,
2093,
2129,
1986,
1950,
1915,
1909,
1797,
1725,
1686,
1636,
1600,
1533,
1520,
1468,
1431,
1381,
1347,
1275,
1273,
1308,
1219,
1111,
1104,
1113,
1057,
1012,
1035,
958,
903,
884,
828,
845,
774,
758,
722,
723,
700,
606,
585,
564,
546,
544,
471,
518,
445,
412,
449,
387,
396,
396,
391,
362,
334,
305,
284,
281,
254,
236,
248,
199,
200,
190,
188,
178,
148,
141,
133,
123,
121,
101,
98,
69,
72,
66,
44,
54,
41,
40,
37,
19,
26,
19,
15,
15,
9,
3,
0,
4,
1,
2,
3,
1,
2,
1,
0,
2,
1,
1,
0,
1,
2,
2,
0,
0,
1,
2,
4,
2,
0,
0,
0,
0,
0,
1,
1,
0,
1,
0,
0,
1,
1,
0,
1,
2,
1,
0,
0,
0,
0,
0,
0,
0,
0,
0,
0,
0,
1,
0,
0,
0,
0,
0,
0,
0,
0,
0,
0,
0,
0,
0,
0,
1,
0,
1,
0,
0,
0,
0,
0,
0,
0,
0,
0,
0,
0,
0,
0,
0,
0,
0,
0,
0,
0,
0,
1,
0,
0,
0,
0,
0,
0,
0,
0,
0,
0,
0,
0,
0,
0,
0,
0,
0,
0,
0,
0,
0,
0,
0,
0,
0,
0,
0,
0,
0,
0,
0,
0,
0,
0,
0,
0,
0,
0,
0,
0,
0,
0,
0,
0,
0,
0,
0,
0,
0,
0,
0,
0,
0,
0,
0,
0,
0,
0,
0,
0,
0,
#ENDOFDATA   :