File: N132962/Quantification/20 keV/MMM2/SPI MM2 Rhodonite[6][4].msa
#FORMAT      : EMSA/MAS Spectral Data File
#VERSION     : 1.0
#TITLE       : SPI MM2 Rhodonite[6][all]
#DATE        : 13-MAR-2025
#TIME        : 12:28
#OWNER       : Unknown
#NPOINTS     : 4096
#NCOLUMNS    : 1
#XUNITS      : eV
#YUNITS      : counts
#DATATYPE    : Y
#XPERCHAN    : 9.99778
#OFFSET      : 1.69135
#BEAMKV      : 20
#SIGNALTYPE  : EDS
#ELEVANGLE   : 35
#AZIMANGLE   : 0
#LIVETIME    : 239.855
#REALTIME    : 255.716
#PROBECUR    : 1.02616
#TAUWIND     : 0
#TDEADLYR    : 0
#TACTLYR     : 0.045
#TALWIND     : 0.025
#CHOFFSET    : 0.0
#XLABEL      : Energy (eV)
#YLABEL      : Counts
#XPOSITION   : 0.046
#YPOSITION   : 1.14224
#ZPOSITION   : 31.03511
#EDSDET      : SD
##SPECIMEN   : SPI MM2 Rhodonite[6][all]
##DET_HASH   : 12273538-fd48-a23f-0a19-f1e6fa85caef
##CALIB_HASH : 6abaa72c-aa41-8738-0be9-f592914732f3
##WORKING    : 15.0 mm
##DET_NAME   : EDAX All
##DET_MODE   : MediumLE
#SPECTRUM    :
23,
205,
11078,
6442,
59201,
5682,
2259,
2629,
3076,
9705,
4114,
5028,
50675,
24866,
3215,
3065,
3482,
3025,
3072,
3095,
3024,
2970,
2698,
2847,
2713,
2886,
10918,
5092,
2796,
3715,
2396,
2134,
2030,
2051,
1920,
1840,
1816,
1701,
1676,
1748,
1718,
3349,
69385,
7146,
1440,
3129,
12852,
3824,
1089,
1025,
1599,
1317,
951,
1053,
993,
933,
867,
849,
853,
819,
798,
743,
754,
671,
739,
674,
627,
644,
615,
640,
603,
565,
540,
528,
515,
489,
420,
448,
463,
464,
415,
387,
366,
383,
364,
327,
336,
296,
295,
271,
275,
280,
249,
251,
216,
217,
225,
190,
186,
175,
185,
127,
152,
112,
148,
129,
113,
111,
133,
101,
111,
93,
88,
85,
65,
84,
74,
56,
67,
74,
50,
54,
47,
37,
41,
30,
23,
25,
29,
25,
27,
16,
10,
17,
12,
7,
13,
8,
4,
6,
5,
1,
1,
0,
0,
0,
1,
0,
1,
0,
0,
0,
1,
0,
0,
0,
0,
0,
2,
0,
0,
0,
0,
0,
0,
1,
0,
0,
0,
0,
0,
0,
0,
0,
0,
0,
0,
0,
0,
0,
0,
0,
1,
0,
0,
0,
0,
1,
0,
0,
0,
0,
0,
0,
0,
0,
0,
0,
0,
0,
0,
0,
0,
0,
0,
0,
0,
0,
0,
0,
0,
0,
0,
0,
0,
0,
0,
0,
0,
0,
0,
0,
0,
0,
0,
0,
0,
0,
0,
0,
0,
0,
0,
0,
0,
0,
0,
0,
0,
0,
0,
0,
0,
0,
0,
0,
0,
0,
0,
0,
0,
0,
0,
0,
0,
0,
0,
0,
0,
0,
0,
0,
0,
0,
0,
0,
0,
0,
0,
0,
0,
0,
0,
0,
0,
0,
0,
0,
0,
0,
0,
0,
0,
0,
0,
0,
0,
0,
0,
0,
0,
0,
0,
0,
#ENDOFDATA   :