File: N132962/Quantification/20 keV/MMM2/SPI MM2 SPI Mangotantalite[7][4].msa
#FORMAT      : EMSA/MAS Spectral Data File
#VERSION     : 1.0
#TITLE       : SPI MM2 SPI Mangotantalite[7][all]
#DATE        : 13-MAR-2025
#TIME        : 09:44
#OWNER       : Unknown
#NPOINTS     : 4096
#NCOLUMNS    : 1
#XUNITS      : eV
#YUNITS      : counts
#DATATYPE    : Y
#XPERCHAN    : 9.99778
#OFFSET      : 1.69135
#BEAMKV      : 20
#SIGNALTYPE  : EDS
#ELEVANGLE   : 35
#AZIMANGLE   : 0
#LIVETIME    : 239.84
#REALTIME    : 261.737
#PROBECUR    : 1.02582
#TAUWIND     : 0
#TDEADLYR    : 0
#TACTLYR     : 0.045
#TALWIND     : 0.025
#CHOFFSET    : 0.0
#XLABEL      : Energy (eV)
#YLABEL      : Counts
#XPOSITION   : -1.60897
#YPOSITION   : -4.5705
#ZPOSITION   : 31.03509
#EDSDET      : SD
##SPECIMEN   : SPI MM2 SPI Mangotantalite[7][all]
##DET_HASH   : 12273538-fd48-a23f-0a19-f1e6fa85caef
##CALIB_HASH : 6abaa72c-aa41-8738-0be9-f592914732f3
##WORKING    : 15.0 mm
##DET_NAME   : EDAX All
##DET_MODE   : MediumLE
#SPECTRUM    :
18,
681,
14502,
6122,
25107,
7807,
5557,
6339,
7263,
10021,
10956,
9971,
132700,
29068,
9938,
13426,
21006,
6630,
4797,
5050,
4661,
4719,
4743,
4770,
4919,
4976,
4723,
4704,
4741,
4701,
4729,
4493,
5441,
4461,
4176,
4266,
4059,
4003,
3913,
3846,
3830,
4316,
27913,
5515,
3483,
4631,
9309,
4076,
3045,
3001,
3335,
4006,
2985,
2833,
2652,
2534,
2599,
4179,
25061,
6635,
2473,
2250,
2061,
2085,
2132,
2403,
5924,
9373,
4065,
5926,
2203,
1709,
1457,
1505,
1528,
1459,
1418,
1815,
2604,
1440,
1654,
1435,
1138,
1213,
1038,
1000,
1000,
939,
889,
824,
881,
790,
799,
758,
740,
719,
648,
657,
621,
587,
561,
540,
504,
536,
451,
463,
426,
399,
372,
357,
357,
336,
324,
294,
251,
263,
250,
253,
245,
249,
225,
167,
179,
149,
153,
153,
137,
130,
120,
105,
100,
96,
76,
73,
64,
61,
37,
38,
30,
25,
26,
16,
4,
1,
2,
4,
4,
5,
3,
4,
4,
2,
0,
3,
3,
3,
1,
4,
1,
3,
1,
2,
0,
1,
0,
2,
4,
0,
1,
0,
0,
1,
0,
1,
0,
0,
1,
0,
1,
2,
0,
0,
0,
2,
0,
1,
2,
1,
1,
0,
1,
0,
0,
0,
0,
0,
1,
2,
0,
0,
0,
0,
0,
0,
0,
1,
1,
1,
0,
0,
0,
0,
0,
0,
1,
0,
0,
0,
0,
0,
0,
0,
0,
0,
0,
0,
0,
0,
0,
0,
0,
0,
0,
0,
0,
0,
0,
0,
0,
0,
0,
0,
0,
0,
0,
0,
0,
0,
0,
0,
0,
0,
0,
0,
0,
0,
0,
0,
0,
0,
0,
0,
0,
0,
0,
0,
0,
0,
0,
0,
0,
0,
0,
0,
0,
0,
0,
0,
0,
0,
0,
0,
0,
0,
0,
0,
0,
0,
0,
0,
0,
0,
0,
0,
#ENDOFDATA   :