File: N132962/Quantification/20 keV/MMM2/SPI MM2 SPI Olivine[0][4].msa
#FORMAT      : EMSA/MAS Spectral Data File
#VERSION     : 1.0
#TITLE       : SPI MM2 SPI Olivine[0][all]
#DATE        : 13-MAR-2025
#TIME        : 09:45
#OWNER       : Unknown
#NPOINTS     : 4096
#NCOLUMNS    : 1
#XUNITS      : eV
#YUNITS      : counts
#DATATYPE    : Y
#XPERCHAN    : 9.99778
#OFFSET      : 1.69135
#BEAMKV      : 20
#SIGNALTYPE  : EDS
#ELEVANGLE   : 35
#AZIMANGLE   : 0
#LIVETIME    : 239.674
#REALTIME    : 255.782
#PROBECUR    : 1.02582
#TAUWIND     : 0
#TDEADLYR    : 0
#TACTLYR     : 0.045
#TALWIND     : 0.025
#CHOFFSET    : 0.0
#XLABEL      : Energy (eV)
#YLABEL      : Counts
#XPOSITION   : -3.18127
#YPOSITION   : -2.1151
#ZPOSITION   : 31.03509
#EDSDET      : SD
##SPECIMEN   : SPI MM2 SPI Olivine[0][all]
##D2STDCMP   : SPI Olivine,(O:43.96),(Mg:30.26),(Si:19.14),(Mn:0.089),(Fe:6.35),(Ni:0.278),5.0
##DET_HASH   : 12273538-fd48-a23f-0a19-f1e6fa85caef
##CALIB_HASH : 6abaa72c-aa41-8738-0be9-f592914732f3
##WORKING    : 15.0 mm
##DET_NAME   : EDAX All
##DET_MODE   : MediumLE
#SPECTRUM    :
28,
184,
8473,
6573,
68050,
7369,
3293,
3586,
5722,
239530,
2797,
3281,
39616,
19245,
2132,
2321,
2793,
2299,
2704,
2309,
2245,
2404,
2246,
2082,
2072,
2017,
1956,
1733,
1758,
1788,
1619,
1653,
1593,
1541,
1397,
1377,
1337,
1327,
1272,
1260,
1186,
1150,
1303,
1049,
1034,
3643,
9358,
1031,
944,
932,
1857,
1275,
809,
1023,
803,
697,
660,
622,
653,
717,
600,
586,
558,
521,
463,
495,
436,
461,
467,
440,
416,
368,
391,
357,
320,
310,
322,
311,
289,
264,
300,
271,
271,
257,
224,
206,
229,
242,
215,
180,
179,
164,
171,
159,
162,
116,
132,
133,
114,
115,
82,
121,
103,
97,
85,
80,
73,
69,
72,
60,
56,
56,
57,
45,
49,
55,
50,
49,
46,
39,
30,
33,
20,
28,
32,
17,
33,
16,
8,
15,
16,
10,
10,
8,
6,
7,
3,
4,
4,
4,
5,
1,
1,
0,
0,
0,
0,
0,
0,
0,
0,
0,
0,
0,
1,
0,
0,
0,
0,
0,
0,
0,
0,
0,
0,
0,
0,
0,
0,
0,
0,
0,
0,
0,
0,
0,
0,
0,
0,
0,
0,
0,
0,
0,
0,
0,
0,
0,
0,
0,
0,
0,
0,
0,
0,
0,
0,
0,
0,
0,
0,
0,
0,
0,
0,
0,
0,
0,
0,
0,
0,
0,
0,
0,
0,
0,
0,
0,
0,
0,
0,
0,
0,
0,
0,
0,
0,
0,
0,
0,
0,
0,
0,
0,
0,
0,
0,
0,
0,
0,
0,
0,
0,
0,
0,
0,
0,
0,
0,
0,
0,
0,
0,
0,
0,
0,
0,
0,
0,
0,
0,
0,
0,
0,
0,
0,
0,
0,
0,
0,
0,
0,
0,
0,
0,
0,
0,
0,
0,
0,
0,
0,
0,
0,
0,
0,
0,
0,
0,
0,
0,
0,
0,
0,
#ENDOFDATA   :