File: N132962/Quantification/20 keV/MMM2/SPI MM2 SPI Plagioclase[1][4].msa
#FORMAT      : EMSA/MAS Spectral Data File
#VERSION     : 1.0
#TITLE       : SPI MM2 SPI Plagioclase[1][all]
#DATE        : 13-MAR-2025
#TIME        : 10:51
#OWNER       : Unknown
#NPOINTS     : 4096
#NCOLUMNS    : 1
#XUNITS      : eV
#YUNITS      : counts
#DATATYPE    : Y
#XPERCHAN    : 9.99778
#OFFSET      : 1.69135
#BEAMKV      : 20
#SIGNALTYPE  : EDS
#ELEVANGLE   : 35
#AZIMANGLE   : 0
#LIVETIME    : 239.851
#REALTIME    : 255.422
#PROBECUR    : 1.02609
#TAUWIND     : 0
#TDEADLYR    : 0
#TACTLYR     : 0.045
#TALWIND     : 0.025
#CHOFFSET    : 0.0
#XLABEL      : Energy (eV)
#YLABEL      : Counts
#XPOSITION   : -1.25375
#YPOSITION   : -0.21896
#ZPOSITION   : 31.0351
#EDSDET      : SD
##SPECIMEN   : SPI MM2 SPI Plagioclase[1][all]
##D2STDCMP   : SPI Plagioclase,(O:46.79),(Na:3.24),(Al:15.54),(Si:24.83),(K:0.2),(Ca:8.53),(Fe:0.27)
##DET_HASH   : 12273538-fd48-a23f-0a19-f1e6fa85caef
##CALIB_HASH : 6abaa72c-aa41-8738-0be9-f592914732f3
##WORKING    : 15.0 mm
##DET_NAME   : EDAX All
##DET_MODE   : MediumLE
#SPECTRUM    :
26,
172,
9353,
4847,
48042,
2300,
2705,
6867,
4396,
4691,
12675,
48381,
55419,
26508,
2860,
2284,
2855,
2358,
2364,
2384,
2358,
2280,
2167,
2660,
3011,
2476,
22490,
8264,
2697,
4663,
1636,
1498,
1692,
1396,
1372,
1312,
1339,
1343,
1243,
1240,
1198,
1107,
1084,
1033,
979,
1079,
1381,
914,
882,
826,
850,
792,
701,
784,
650,
656,
665,
654,
621,
631,
564,
577,
566,
515,
505,
495,
463,
478,
453,
461,
397,
408,
431,
355,
359,
350,
353,
322,
302,
269,
280,
294,
244,
267,
246,
223,
217,
216,
201,
197,
194,
183,
146,
179,
154,
157,
137,
121,
146,
129,
140,
108,
77,
84,
91,
78,
90,
85,
69,
61,
62,
62,
60,
63,
40,
43,
50,
29,
31,
28,
44,
23,
32,
19,
21,
29,
13,
20,
14,
13,
14,
10,
9,
8,
10,
4,
9,
5,
4,
3,
1,
2,
0,
0,
0,
0,
0,
0,
1,
0,
0,
0,
0,
0,
1,
0,
0,
0,
0,
0,
0,
0,
0,
0,
0,
0,
0,
0,
0,
0,
0,
0,
0,
0,
0,
0,
0,
0,
0,
0,
0,
0,
0,
0,
0,
0,
0,
0,
0,
0,
0,
0,
0,
0,
0,
0,
0,
0,
0,
0,
0,
0,
0,
0,
0,
0,
0,
0,
0,
0,
0,
0,
0,
0,
0,
0,
0,
0,
0,
0,
0,
0,
0,
0,
0,
0,
0,
0,
0,
0,
0,
0,
0,
0,
0,
0,
0,
0,
0,
0,
0,
0,
0,
0,
0,
0,
0,
0,
0,
0,
0,
0,
0,
0,
0,
0,
0,
0,
0,
0,
0,
0,
0,
0,
0,
0,
0,
0,
0,
0,
0,
0,
0,
0,
0,
0,
0,
0,
0,
0,
0,
0,
0,
0,
0,
0,
0,
0,
0,
0,
0,
0,
0,
0,
#ENDOFDATA   :