File: N132962/Quantification/20 keV/MMM2/SPI MM2 SPI Orthoclaise[3][4].msa
#FORMAT      : EMSA/MAS Spectral Data File
#VERSION     : 1.0
#TITLE       : SPI MM2 SPI Orthoclaise[3][all]
#DATE        : 13-MAR-2025
#TIME        : 10:26
#OWNER       : Unknown
#NPOINTS     : 4096
#NCOLUMNS    : 1
#XUNITS      : eV
#YUNITS      : counts
#DATATYPE    : Y
#XPERCHAN    : 9.99778
#OFFSET      : 1.69135
#BEAMKV      : 20
#SIGNALTYPE  : EDS
#ELEVANGLE   : 35
#AZIMANGLE   : 0
#LIVETIME    : 239.856
#REALTIME    : 255.978
#PROBECUR    : 1.02606
#TAUWIND     : 0
#TDEADLYR    : 0
#TACTLYR     : 0.045
#TALWIND     : 0.025
#CHOFFSET    : 0.0
#XLABEL      : Energy (eV)
#YLABEL      : Counts
#XPOSITION   : 6.16898
#YPOSITION   : 0.18017
#ZPOSITION   : 31.0351
#EDSDET      : SD
##SPECIMEN   : SPI MM2 SPI Orthoclaise[3][all]
##D2STDCMP   : SPI Orthoclaise,(O:45.86),(Na:0.67),(Al:8.85),(Si:30.29),(K:12.85),(Fe:1.4),(Ba:0.04),5.0
##DET_HASH   : 12273538-fd48-a23f-0a19-f1e6fa85caef
##CALIB_HASH : 6abaa72c-aa41-8738-0be9-f592914732f3
##WORKING    : 15.0 mm
##DET_NAME   : EDAX All
##DET_MODE   : MediumLE
#SPECTRUM    :
33,
162,
9428,
4348,
42315,
3832,
2651,
3333,
3748,
4481,
9216,
30401,
74389,
34457,
2474,
2429,
2955,
2462,
2473,
2455,
2410,
2378,
2328,
9976,
41307,
3887,
6338,
1852,
1725,
1673,
1576,
1569,
1504,
1500,
1374,
1407,
1510,
1379,
1245,
1263,
1158,
1127,
1138,
1083,
1033,
1833,
3656,
951,
991,
882,
1137,
939,
773,
800,
724,
718,
646,
647,
677,
595,
605,
594,
572,
556,
512,
477,
456,
485,
472,
420,
430,
406,
421,
371,
355,
332,
345,
346,
322,
315,
276,
291,
258,
235,
248,
230,
226,
209,
237,
208,
190,
183,
166,
182,
138,
139,
146,
136,
142,
130,
110,
120,
104,
87,
88,
94,
92,
87,
64,
65,
79,
61,
63,
55,
53,
48,
50,
49,
46,
49,
35,
34,
33,
29,
26,
23,
15,
19,
18,
15,
9,
12,
9,
9,
10,
10,
2,
7,
3,
2,
0,
5,
1,
0,
0,
1,
0,
0,
1,
0,
0,
1,
0,
0,
0,
1,
0,
0,
0,
0,
0,
0,
0,
0,
0,
0,
0,
0,
0,
0,
0,
0,
0,
0,
0,
0,
0,
0,
0,
0,
0,
0,
0,
0,
0,
0,
0,
0,
0,
0,
0,
0,
0,
0,
0,
0,
0,
0,
0,
0,
0,
0,
0,
0,
0,
0,
0,
0,
0,
0,
0,
0,
0,
0,
0,
0,
0,
0,
0,
0,
0,
0,
0,
0,
0,
0,
0,
0,
0,
0,
0,
0,
0,
0,
0,
0,
0,
0,
0,
0,
0,
0,
0,
0,
0,
0,
0,
0,
0,
0,
0,
0,
0,
0,
0,
0,
0,
0,
0,
0,
0,
0,
0,
0,
0,
0,
0,
0,
0,
0,
0,
0,
0,
0,
0,
0,
0,
0,
0,
0,
0,
0,
0,
0,
0,
0,
0,
0,
0,
0,
0,
0,
0,
0,
#ENDOFDATA   :