File: N132962/Quantification/20 keV/MMM2/SPI MM2 Uvarovite[4][4].msa
#FORMAT      : EMSA/MAS Spectral Data File
#VERSION     : 1.0
#TITLE       : SPI MM2 Uvarovite[4][all]
#DATE        : 13-MAR-2025
#TIME        : 14:16
#OWNER       : Unknown
#NPOINTS     : 4096
#NCOLUMNS    : 1
#XUNITS      : eV
#YUNITS      : counts
#DATATYPE    : Y
#XPERCHAN    : 9.99778
#OFFSET      : 1.69135
#BEAMKV      : 20
#SIGNALTYPE  : EDS
#ELEVANGLE   : 35
#AZIMANGLE   : 0
#LIVETIME    : 239.742
#REALTIME    : 255.202
#PROBECUR    : 1.02609
#TAUWIND     : 0
#TDEADLYR    : 0
#TACTLYR     : 0.045
#TALWIND     : 0.025
#CHOFFSET    : 0.0
#XLABEL      : Energy (eV)
#YLABEL      : Counts
#XPOSITION   : 5.67741
#YPOSITION   : 6.40559
#ZPOSITION   : 31.03511
#EDSDET      : SD
##SPECIMEN   : SPI MM2 Uvarovite[4][all]
##DET_HASH   : 12273538-fd48-a23f-0a19-f1e6fa85caef
##CALIB_HASH : 6abaa72c-aa41-8738-0be9-f592914732f3
##WORKING    : 15.0 mm
##DET_NAME   : EDAX All
##DET_MODE   : MediumLE
#SPECTRUM    :
31,
199,
13664,
4091,
32092,
2462,
2435,
3011,
3520,
4250,
6074,
12703,
43476,
21584,
4488,
3335,
3635,
3234,
3173,
3205,
3091,
2961,
2926,
2898,
2673,
3347,
63990,
22346,
4931,
11213,
1972,
1809,
4392,
2029,
1608,
2290,
1783,
1654,
9118,
22489,
1526,
1414,
3588,
2882,
1224,
1554,
2344,
988,
1034,
1056,
1112,
1060,
921,
987,
908,
903,
803,
833,
785,
761,
699,
730,
671,
695,
639,
622,
554,
560,
579,
564,
516,
530,
468,
505,
475,
446,
420,
430,
399,
356,
379,
346,
345,
325,
305,
290,
281,
259,
248,
246,
236,
269,
223,
233,
200,
196,
171,
178,
161,
167,
162,
150,
137,
145,
127,
107,
105,
99,
104,
104,
89,
87,
73,
68,
63,
52,
57,
54,
59,
48,
42,
39,
44,
46,
45,
31,
24,
23,
25,
15,
22,
14,
17,
12,
8,
8,
8,
4,
7,
5,
3,
1,
0,
0,
0,
0,
1,
1,
0,
0,
0,
1,
0,
0,
0,
0,
0,
0,
1,
0,
1,
0,
1,
0,
0,
0,
0,
0,
0,
0,
0,
0,
0,
0,
0,
0,
0,
0,
0,
0,
0,
0,
0,
0,
0,
0,
0,
0,
0,
0,
0,
0,
0,
0,
0,
0,
0,
0,
0,
0,
0,
0,
0,
0,
0,
0,
0,
0,
0,
0,
0,
0,
0,
0,
0,
0,
0,
0,
0,
0,
0,
0,
0,
0,
0,
0,
0,
0,
0,
0,
0,
0,
0,
0,
0,
0,
0,
0,
0,
0,
0,
0,
0,
0,
0,
0,
0,
0,
0,
0,
0,
0,
0,
0,
0,
0,
0,
0,
0,
0,
0,
0,
0,
0,
0,
0,
0,
0,
0,
0,
0,
0,
0,
0,
0,
0,
0,
0,
0,
0,
0,
0,
0,
0,
0,
0,
0,
0,
0,
0,
0,
0,
0,
0,
#ENDOFDATA   :