File: N132962/Quantification/20 keV/MMM2/SPI MM2 C[2][4].msa
#FORMAT      : EMSA/MAS Spectral Data File
#VERSION     : 1.0
#TITLE       : SPI MM2 C[2][all]
#DATE        : 13-MAR-2025
#TIME        : 14:23
#OWNER       : Unknown
#NPOINTS     : 4096
#NCOLUMNS    : 1
#XUNITS      : eV
#YUNITS      : counts
#DATATYPE    : Y
#XPERCHAN    : 9.99778
#OFFSET      : 1.69135
#BEAMKV      : 20
#SIGNALTYPE  : EDS
#ELEVANGLE   : 35
#AZIMANGLE   : 0
#LIVETIME    : 239.988
#REALTIME    : 250.9146
#PROBECUR    : 1.02609
#TAUWIND     : 0
#TDEADLYR    : 0
#TACTLYR     : 0.045
#TALWIND     : 0.025
#CHOFFSET    : 0.0
#XLABEL      : Energy (eV)
#YLABEL      : Counts
#XPOSITION   : 3.31868
#YPOSITION   : 8.90796
#ZPOSITION   : 31.03511
#EDSDET      : SD
##SPECIMEN   : SPI MM2 C[2][all]
##D2STDCMP   : C,(C:100.0)
##DET_HASH   : 12273538-fd48-a23f-0a19-f1e6fa85caef
##CALIB_HASH : 6abaa72c-aa41-8738-0be9-f592914732f3
##WORKING    : 15.0 mm
##DET_NAME   : EDAX All
##DET_MODE   : MediumLE
#SPECTRUM    :
38,
956,
444851,
556,
2271,
1217,
1561,
1931,
2262,
2509,
2706,
2599,
2559,
2395,
2083,
1992,
1759,
1702,
1569,
1524,
1290,
1327,
1277,
1192,
1100,
1065,
987,
949,
888,
860,
822,
763,
761,
681,
657,
641,
681,
555,
604,
560,
562,
528,
503,
445,
439,
438,
485,
367,
349,
403,
369,
339,
329,
314,
296,
280,
289,
308,
259,
290,
232,
235,
221,
196,
194,
166,
203,
202,
168,
153,
181,
143,
117,
142,
131,
126,
106,
103,
119,
107,
114,
100,
82,
95,
74,
78,
99,
77,
69,
68,
78,
51,
63,
52,
61,
39,
48,
37,
42,
41,
38,
40,
32,
38,
20,
26,
29,
27,
19,
17,
18,
25,
15,
18,
18,
21,
21,
11,
11,
8,
14,
15,
8,
6,
7,
6,
8,
8,
6,
2,
10,
2,
7,
2,
2,
1,
3,
1,
3,
3,
1,
0,
1,
0,
0,
0,
0,
0,
0,
0,
0,
0,
0,
0,
0,
0,
0,
0,
0,
0,
0,
0,
0,
0,
0,
0,
0,
0,
0,
0,
0,
0,
0,
0,
0,
0,
0,
0,
0,
0,
0,
0,
0,
0,
0,
0,
0,
0,
0,
0,
0,
0,
0,
0,
0,
0,
0,
0,
0,
0,
0,
0,
0,
0,
0,
0,
0,
0,
0,
0,
0,
0,
0,
0,
0,
0,
0,
0,
0,
0,
0,
0,
0,
0,
0,
0,
0,
0,
0,
0,
0,
0,
0,
0,
0,
0,
0,
0,
0,
0,
0,
0,
0,
0,
0,
0,
0,
0,
0,
0,
0,
0,
0,
0,
0,
0,
0,
0,
0,
0,
0,
0,
0,
0,
0,
0,
0,
0,
0,
0,
0,
0,
0,
0,
0,
0,
0,
0,
0,
0,
0,
0,
0,
0,
0,
0,
0,
0,
0,
0,
0,
0,
0,
0,
#ENDOFDATA   :