File: N132962/Quantification/20 keV/MMM2/SPI MM2 Quartz[4][4].msa
#FORMAT      : EMSA/MAS Spectral Data File
#VERSION     : 1.0
#TITLE       : SPI MM2 Quartz[4][all]
#DATE        : 13-MAR-2025
#TIME        : 12:35
#OWNER       : Unknown
#NPOINTS     : 4096
#NCOLUMNS    : 1
#XUNITS      : eV
#YUNITS      : counts
#DATATYPE    : Y
#XPERCHAN    : 9.99778
#OFFSET      : 1.69135
#BEAMKV      : 20
#SIGNALTYPE  : EDS
#ELEVANGLE   : 35
#AZIMANGLE   : 0
#LIVETIME    : 239.821
#REALTIME    : 257.775
#PROBECUR    : 1.02627
#TAUWIND     : 0
#TDEADLYR    : 0
#TACTLYR     : 0.045
#TALWIND     : 0.025
#CHOFFSET    : 0.0
#XLABEL      : Energy (eV)
#YLABEL      : Counts
#XPOSITION   : 2.45647
#YPOSITION   : 2.26781
#ZPOSITION   : 31.03511
#EDSDET      : SD
##SPECIMEN   : SPI MM2 Quartz[4][all]
##D2STDCMP   : Quartz,(O:53.2565),(Si:46.7435),2.65
##DET_HASH   : 12273538-fd48-a23f-0a19-f1e6fa85caef
##CALIB_HASH : 6abaa72c-aa41-8738-0be9-f592914732f3
##WORKING    : 15.0 mm
##DET_NAME   : EDAX All
##DET_MODE   : MediumLE
#SPECTRUM    :
28,
182,
8488,
6262,
66098,
2026,
2426,
3079,
3478,
4088,
4736,
6154,
129436,
58497,
1987,
2002,
3246,
2124,
2035,
2090,
2082,
2040,
1979,
1869,
1899,
2995,
1820,
1670,
1693,
1523,
1531,
1491,
1464,
1327,
1333,
1330,
1191,
1242,
1138,
1118,
1081,
984,
919,
979,
910,
900,
944,
843,
783,
806,
804,
768,
726,
713,
661,
670,
615,
615,
573,
557,
542,
489,
528,
461,
428,
444,
444,
412,
409,
381,
379,
371,
376,
309,
323,
311,
323,
329,
320,
273,
256,
245,
237,
226,
200,
199,
163,
177,
179,
196,
159,
145,
153,
158,
135,
141,
113,
105,
110,
112,
103,
93,
99,
75,
86,
60,
71,
80,
82,
66,
58,
56,
61,
48,
44,
34,
61,
35,
38,
37,
28,
22,
21,
14,
20,
30,
18,
16,
14,
13,
9,
14,
7,
8,
7,
7,
4,
10,
5,
0,
4,
1,
0,
0,
1,
0,
0,
0,
0,
0,
0,
0,
0,
1,
1,
0,
0,
0,
0,
0,
0,
0,
0,
0,
0,
0,
0,
0,
0,
0,
0,
0,
0,
0,
0,
0,
0,
0,
0,
0,
0,
0,
0,
0,
0,
0,
0,
0,
0,
0,
0,
0,
0,
0,
0,
0,
0,
0,
0,
0,
0,
0,
0,
0,
0,
0,
0,
0,
0,
0,
0,
0,
0,
0,
0,
0,
0,
0,
0,
0,
0,
0,
0,
0,
0,
0,
0,
0,
0,
0,
0,
0,
0,
0,
0,
0,
0,
0,
0,
0,
0,
0,
0,
0,
0,
0,
0,
0,
0,
0,
0,
0,
0,
0,
0,
0,
0,
0,
0,
0,
0,
0,
0,
0,
0,
0,
0,
0,
0,
0,
0,
0,
0,
0,
0,
0,
0,
0,
0,
0,
0,
0,
0,
0,
0,
0,
0,
0,
0,
0,
0,
0,
0,
0,
#ENDOFDATA   :