File: N132962/Quantification/20 keV/MMM2/SPI MM2 SPI Obsidian[6][4].msa
#FORMAT      : EMSA/MAS Spectral Data File
#VERSION     : 1.0
#TITLE       : SPI MM2 SPI Obsidian[6][all]
#DATE        : 13-MAR-2025
#TIME        : 10:01
#OWNER       : Unknown
#NPOINTS     : 4096
#NCOLUMNS    : 1
#XUNITS      : eV
#YUNITS      : counts
#DATATYPE    : Y
#XPERCHAN    : 9.99778
#OFFSET      : 1.69135
#BEAMKV      : 20
#SIGNALTYPE  : EDS
#ELEVANGLE   : 35
#AZIMANGLE   : 0
#LIVETIME    : 239.906
#REALTIME    : 256.361
#PROBECUR    : 1.02627
#TAUWIND     : 0
#TDEADLYR    : 0
#TACTLYR     : 0.045
#TALWIND     : 0.025
#CHOFFSET    : 0.0
#XLABEL      : Energy (eV)
#YLABEL      : Counts
#XPOSITION   : 0.02671
#YPOSITION   : -3.01571
#ZPOSITION   : 31.03509
#EDSDET      : SD
##SPECIMEN   : SPI MM2 SPI Obsidian[6][all]
##D2STDCMP   : SPI Obsidian,(O:49.01),(Na:2.77),(Mg:0.06),(Al:6.9),(Si:35.66),(K:3.58),(Ca:0.63),(Ti:0.06),(Mn:0.04),(Fe:0.59),5.0
##DET_HASH   : 12273538-fd48-a23f-0a19-f1e6fa85caef
##CALIB_HASH : 6abaa72c-aa41-8738-0be9-f592914732f3
##WORKING    : 15.0 mm
##DET_NAME   : EDAX All
##DET_MODE   : MediumLE
#SPECTRUM    :
23,
170,
8499,
5640,
57405,
2677,
2673,
6570,
4328,
4523,
8313,
25013,
88644,
41060,
2172,
2204,
2973,
2236,
2255,
2177,
2270,
2148,
2024,
4214,
12150,
2831,
4249,
2232,
1689,
1887,
1570,
1460,
1712,
1500,
1421,
1399,
1433,
1269,
1237,
1143,
1124,
1127,
1105,
1057,
940,
1191,
1759,
843,
892,
806,
917,
785,
743,
724,
684,
642,
612,
594,
610,
618,
609,
544,
515,
496,
498,
483,
477,
417,
425,
395,
403,
396,
367,
372,
335,
365,
329,
301,
318,
311,
292,
293,
253,
225,
263,
225,
242,
206,
173,
210,
190,
189,
158,
169,
148,
141,
134,
127,
116,
112,
105,
92,
103,
97,
83,
99,
71,
71,
53,
62,
63,
49,
54,
55,
45,
34,
38,
32,
30,
27,
25,
30,
25,
26,
29,
24,
24,
26,
11,
25,
10,
14,
11,
8,
8,
5,
13,
2,
1,
4,
1,
5,
0,
0,
0,
0,
0,
0,
0,
0,
0,
0,
1,
0,
0,
0,
1,
0,
0,
0,
0,
0,
0,
0,
0,
0,
0,
0,
0,
0,
0,
0,
0,
0,
0,
0,
0,
0,
0,
0,
0,
0,
0,
0,
0,
0,
0,
0,
0,
0,
0,
0,
0,
0,
0,
0,
0,
0,
0,
0,
0,
0,
0,
0,
0,
0,
0,
0,
0,
0,
0,
0,
0,
0,
0,
0,
0,
0,
0,
0,
0,
0,
0,
0,
0,
0,
0,
0,
0,
0,
0,
0,
0,
0,
0,
0,
0,
0,
0,
0,
0,
0,
0,
0,
0,
0,
0,
0,
0,
0,
0,
0,
0,
0,
0,
0,
0,
0,
0,
0,
0,
0,
0,
0,
0,
0,
0,
0,
0,
0,
0,
0,
0,
0,
0,
0,
0,
0,
0,
0,
0,
0,
0,
0,
0,
0,
0,
0,
0,
0,
0,
0,
0,
0,
#ENDOFDATA   :