File: N132962/Quantification/20 keV/MMM2/SPI MM2 SPI Plagioclase[5][4].msa
#FORMAT      : EMSA/MAS Spectral Data File
#VERSION     : 1.0
#TITLE       : SPI MM2 SPI Plagioclase[5][all]
#DATE        : 13-MAR-2025
#TIME        : 10:56
#OWNER       : Unknown
#NPOINTS     : 4096
#NCOLUMNS    : 1
#XUNITS      : eV
#YUNITS      : counts
#DATATYPE    : Y
#XPERCHAN    : 9.99778
#OFFSET      : 1.69135
#BEAMKV      : 20
#SIGNALTYPE  : EDS
#ELEVANGLE   : 35
#AZIMANGLE   : 0
#LIVETIME    : 239.829
#REALTIME    : 255.4107
#PROBECUR    : 1.02609
#TAUWIND     : 0
#TDEADLYR    : 0
#TACTLYR     : 0.045
#TALWIND     : 0.025
#CHOFFSET    : 0.0
#XLABEL      : Energy (eV)
#YLABEL      : Counts
#XPOSITION   : -1.33313
#YPOSITION   : -0.16274
#ZPOSITION   : 31.0351
#EDSDET      : SD
##SPECIMEN   : SPI MM2 SPI Plagioclase[5][all]
##D2STDCMP   : SPI Plagioclase,(O:46.79),(Na:3.24),(Al:15.54),(Si:24.83),(K:0.2),(Ca:8.53),(Fe:0.27)
##DET_HASH   : 12273538-fd48-a23f-0a19-f1e6fa85caef
##CALIB_HASH : 6abaa72c-aa41-8738-0be9-f592914732f3
##WORKING    : 15.0 mm
##DET_NAME   : EDAX All
##DET_MODE   : MediumLE
#SPECTRUM    :
24,
156,
9317,
4967,
48166,
2222,
2699,
6833,
4347,
4735,
12650,
48759,
55650,
27012,
2997,
2463,
2673,
2360,
2438,
2264,
2351,
2335,
2268,
2638,
2982,
2485,
22500,
8404,
2695,
4699,
1646,
1597,
1672,
1476,
1435,
1359,
1285,
1276,
1235,
1287,
1153,
1185,
1062,
1020,
1047,
1112,
1388,
915,
880,
809,
836,
849,
749,
765,
721,
707,
646,
643,
637,
589,
557,
541,
529,
517,
506,
484,
487,
476,
438,
440,
431,
353,
373,
360,
368,
349,
363,
305,
306,
284,
272,
269,
249,
243,
251,
229,
225,
225,
200,
182,
176,
175,
141,
170,
131,
147,
127,
114,
135,
130,
127,
123,
95,
86,
82,
68,
81,
87,
66,
69,
68,
61,
68,
54,
46,
42,
37,
35,
56,
37,
43,
36,
32,
25,
19,
22,
26,
15,
22,
23,
13,
10,
10,
9,
5,
11,
5,
4,
3,
4,
0,
1,
0,
0,
0,
0,
1,
0,
0,
0,
0,
0,
0,
0,
0,
0,
0,
0,
0,
0,
0,
0,
0,
0,
0,
1,
0,
0,
0,
0,
0,
0,
0,
0,
0,
0,
0,
0,
0,
0,
0,
0,
0,
0,
0,
0,
0,
0,
0,
0,
0,
0,
0,
0,
0,
0,
0,
0,
0,
0,
0,
0,
0,
0,
0,
0,
0,
0,
0,
0,
0,
0,
0,
0,
0,
0,
0,
0,
0,
0,
0,
0,
0,
0,
0,
0,
0,
0,
0,
0,
0,
0,
0,
0,
0,
0,
0,
0,
0,
0,
0,
0,
0,
0,
0,
0,
0,
0,
0,
0,
0,
0,
0,
0,
0,
0,
0,
0,
0,
0,
0,
0,
0,
0,
0,
0,
0,
0,
0,
0,
0,
0,
0,
0,
0,
0,
0,
0,
0,
0,
0,
0,
0,
0,
0,
0,
0,
0,
0,
0,
0,
0,
0,
0,
#ENDOFDATA   :