File: N132962/Quantification/20 keV/MMM2/SPI MM2 SPI Monazite[7][4].msa
#FORMAT      : EMSA/MAS Spectral Data File
#VERSION     : 1.0
#TITLE       : SPI MM2 SPI Monazite[7][all]
#DATE        : 13-MAR-2025
#TIME        : 10:12
#OWNER       : Unknown
#NPOINTS     : 4096
#NCOLUMNS    : 1
#XUNITS      : eV
#YUNITS      : counts
#DATATYPE    : Y
#XPERCHAN    : 9.99778
#OFFSET      : 1.69135
#BEAMKV      : 20
#SIGNALTYPE  : EDS
#ELEVANGLE   : 35
#AZIMANGLE   : 0
#LIVETIME    : 239.873
#REALTIME    : 258.41
#PROBECUR    : 1.02627
#TAUWIND     : 0
#TDEADLYR    : 0
#TACTLYR     : 0.045
#TALWIND     : 0.025
#CHOFFSET    : 0.0
#XLABEL      : Energy (eV)
#YLABEL      : Counts
#XPOSITION   : 2.43888
#YPOSITION   : -2.74666
#ZPOSITION   : 31.03509
#EDSDET      : SD
##SPECIMEN   : SPI MM2 SPI Monazite[7][all]
##D2STDCMP   : SPI Monazite,(O:26.45),(Si:0.83),(P:11.85),(Ca:0.65),(Y:1.59),(La:7.84),(Ce:19.96),(Pr:2.47),(Nd:9.68),(Sm:3.7),(Eu:0.38),(Gd:2.89),(Tb:0.35),(Dy:1.21),(Pb:0.25),(Th:9.7),(U:0.16),5.0
##DET_HASH   : 12273538-fd48-a23f-0a19-f1e6fa85caef
##CALIB_HASH : 6abaa72c-aa41-8738-0be9-f592914732f3
##WORKING    : 15.0 mm
##DET_NAME   : EDAX All
##DET_MODE   : MediumLE
#SPECTRUM    :
32,
416,
17290,
7981,
40809,
9484,
11026,
9130,
7302,
6420,
5757,
5571,
7562,
7328,
36325,
12890,
5247,
5966,
5200,
5371,
5143,
11434,
11205,
7887,
6027,
4724,
5901,
4863,
4504,
4758,
4530,
4539,
4275,
13276,
13371,
17070,
12078,
15352,
15657,
6117,
10779,
9259,
4436,
6973,
5424,
4251,
3510,
4069,
3355,
2716,
2622,
2712,
2432,
2339,
2185,
2217,
2085,
1986,
1839,
1803,
1877,
1795,
1709,
1623,
1624,
1507,
1584,
1513,
1456,
1427,
1334,
1362,
1321,
1234,
1234,
1238,
1220,
1126,
1141,
1052,
1013,
1012,
861,
921,
923,
838,
839,
794,
736,
743,
703,
687,
831,
795,
612,
597,
546,
533,
495,
446,
479,
458,
450,
408,
368,
378,
363,
370,
292,
286,
289,
320,
278,
238,
224,
199,
202,
175,
161,
179,
161,
140,
134,
117,
137,
88,
104,
82,
77,
88,
69,
60,
54,
38,
47,
33,
29,
40,
17,
16,
17,
6,
4,
4,
4,
3,
3,
4,
1,
2,
0,
0,
1,
1,
2,
1,
0,
0,
0,
0,
0,
0,
2,
0,
0,
0,
0,
1,
0,
1,
0,
0,
1,
1,
2,
0,
0,
0,
0,
0,
0,
0,
1,
1,
0,
0,
1,
0,
0,
0,
0,
0,
0,
0,
0,
1,
0,
0,
0,
0,
0,
0,
0,
0,
0,
0,
0,
0,
0,
0,
0,
0,
0,
0,
0,
0,
0,
0,
0,
0,
0,
0,
0,
0,
0,
0,
0,
0,
0,
0,
0,
0,
0,
0,
0,
0,
0,
0,
0,
0,
0,
0,
0,
0,
0,
0,
0,
0,
0,
0,
0,
0,
0,
0,
0,
0,
0,
0,
0,
0,
0,
0,
0,
0,
0,
0,
0,
0,
0,
0,
0,
0,
0,
0,
0,
0,
0,
0,
0,
0,
0,
0,
0,
0,
0,
0,
0,
0,
0,
0,
0,
0,
0,
0,
#ENDOFDATA   :