File: N132962/Quantification/20 keV/MMM2/SPI MM2 SPI Pollucite[2][4].msa
#FORMAT      : EMSA/MAS Spectral Data File
#VERSION     : 1.0
#TITLE       : SPI MM2 SPI Pollucite[2][all]
#DATE        : 13-MAR-2025
#TIME        : 11:02
#OWNER       : Unknown
#NPOINTS     : 4096
#NCOLUMNS    : 1
#XUNITS      : eV
#YUNITS      : counts
#DATATYPE    : Y
#XPERCHAN    : 9.99778
#OFFSET      : 1.69135
#BEAMKV      : 20
#SIGNALTYPE  : EDS
#ELEVANGLE   : 35
#AZIMANGLE   : 0
#LIVETIME    : 239.765
#REALTIME    : 256.941
#PROBECUR    : 1.02609
#TAUWIND     : 0
#TDEADLYR    : 0
#TACTLYR     : 0.045
#TALWIND     : 0.025
#CHOFFSET    : 0.0
#XLABEL      : Energy (eV)
#YLABEL      : Counts
#XPOSITION   : -4.05209
#YPOSITION   : -1.14403
#ZPOSITION   : 31.0351
#EDSDET      : SD
##SPECIMEN   : SPI MM2 SPI Pollucite[2][all]
##D2STDCMP   : SPI Pollucite,(Li:0.05),(O:35.94),(Na:1.5),(Al:9.06),(Si:22.2),(K:0.05),(Rb:0.17),(Cs:32.3)
##DET_HASH   : 12273538-fd48-a23f-0a19-f1e6fa85caef
##CALIB_HASH : 6abaa72c-aa41-8738-0be9-f592914732f3
##WORKING    : 15.0 mm
##DET_NAME   : EDAX All
##DET_MODE   : MediumLE
#SPECTRUM    :
23,
289,
11573,
7833,
64335,
4910,
3465,
5736,
3984,
4285,
8003,
22777,
44882,
22056,
3716,
3621,
4033,
3656,
4074,
3679,
3721,
3631,
3547,
3650,
3406,
3328,
3231,
4814,
3240,
3208,
13551,
28692,
3496,
24617,
6623,
8178,
3413,
2636,
4383,
2553,
2689,
2044,
1708,
1775,
1617,
1733,
1766,
1558,
1525,
1491,
1454,
1456,
1318,
1410,
1296,
1287,
1179,
1182,
1231,
1182,
1095,
1155,
1066,
1045,
1017,
1000,
927,
928,
873,
836,
819,
791,
804,
719,
747,
662,
720,
663,
637,
630,
612,
554,
559,
542,
499,
514,
486,
452,
422,
422,
349,
395,
358,
380,
344,
314,
340,
303,
274,
293,
242,
251,
270,
185,
228,
183,
193,
185,
152,
174,
163,
142,
140,
116,
123,
114,
132,
98,
101,
82,
87,
89,
72,
65,
63,
56,
52,
48,
40,
37,
38,
34,
31,
18,
17,
14,
26,
13,
16,
8,
4,
4,
5,
1,
0,
0,
0,
0,
1,
0,
1,
2,
0,
0,
0,
0,
0,
0,
0,
0,
0,
0,
0,
1,
0,
0,
0,
0,
0,
1,
0,
0,
0,
0,
1,
0,
0,
1,
0,
0,
0,
0,
0,
0,
0,
0,
0,
0,
0,
0,
0,
0,
0,
0,
0,
0,
0,
0,
0,
0,
0,
1,
0,
1,
0,
0,
0,
0,
0,
0,
0,
0,
0,
0,
0,
0,
0,
0,
0,
0,
0,
0,
0,
0,
0,
0,
0,
0,
0,
0,
0,
0,
0,
0,
0,
0,
0,
0,
0,
0,
0,
0,
0,
0,
0,
0,
0,
0,
0,
0,
0,
0,
0,
0,
0,
0,
0,
0,
0,
0,
0,
0,
0,
0,
0,
0,
0,
0,
0,
0,
0,
0,
0,
0,
0,
0,
0,
0,
0,
0,
0,
0,
0,
0,
0,
0,
0,
0,
0,
0,
0,
0,
0,
0,
#ENDOFDATA   :