File: N132962/Quantification/20 keV/MMM2/SPI MM2 SPI Pentlandite[2][4].msa
#FORMAT      : EMSA/MAS Spectral Data File
#VERSION     : 1.0
#TITLE       : SPI MM2 SPI Pentlandite[2][all]
#DATE        : 13-MAR-2025
#TIME        : 10:34
#OWNER       : Unknown
#NPOINTS     : 4096
#NCOLUMNS    : 1
#XUNITS      : eV
#YUNITS      : counts
#DATATYPE    : Y
#XPERCHAN    : 9.99778
#OFFSET      : 1.69135
#BEAMKV      : 20
#SIGNALTYPE  : EDS
#ELEVANGLE   : 35
#AZIMANGLE   : 0
#LIVETIME    : 239.953
#REALTIME    : 260.268
#PROBECUR    : 1.02606
#TAUWIND     : 0
#TDEADLYR    : 0
#TACTLYR     : 0.045
#TALWIND     : 0.025
#CHOFFSET    : 0.0
#XLABEL      : Energy (eV)
#YLABEL      : Counts
#XPOSITION   : 3.8895
#YPOSITION   : -0.3115
#ZPOSITION   : 31.0351
#EDSDET      : SD
##SPECIMEN   : SPI MM2 SPI Pentlandite[2][all]
##D2STDCMP   : SPI Pentlandite,(S:32.89),(Fe:30.88),(Co:0.43),(Ni:35.61)
##DET_HASH   : 12273538-fd48-a23f-0a19-f1e6fa85caef
##CALIB_HASH : 6abaa72c-aa41-8738-0be9-f592914732f3
##WORKING    : 15.0 mm
##DET_NAME   : EDAX All
##DET_MODE   : MediumLE
#SPECTRUM    :
35,
460,
11899,
3288,
13648,
50061,
63398,
3488,
3582,
4087,
4698,
5207,
5534,
5878,
5396,
5639,
62907,
49488,
10311,
3718,
3863,
3938,
3824,
3641,
3596,
3517,
3604,
3356,
3374,
3277,
3076,
3119,
2989,
3382,
2924,
2739,
2715,
2693,
2613,
2563,
2369,
2389,
2361,
2237,
2386,
17315,
50479,
2532,
1953,
2641,
7965,
4577,
2238,
35314,
17578,
1592,
1465,
1501,
2062,
7414,
1795,
1234,
1202,
1130,
1127,
1088,
1015,
997,
943,
980,
1020,
934,
831,
846,
869,
799,
758,
763,
674,
651,
595,
616,
615,
624,
541,
547,
566,
508,
496,
474,
431,
476,
409,
409,
389,
331,
378,
328,
336,
354,
317,
281,
262,
234,
237,
243,
216,
217,
203,
188,
174,
169,
106,
158,
142,
106,
100,
123,
115,
101,
107,
95,
64,
76,
73,
59,
67,
57,
47,
54,
42,
37,
25,
28,
24,
26,
19,
15,
9,
14,
6,
4,
4,
2,
0,
0,
2,
1,
3,
2,
1,
1,
2,
0,
1,
0,
3,
0,
0,
0,
0,
1,
0,
1,
0,
0,
0,
0,
0,
1,
0,
1,
1,
0,
0,
0,
1,
0,
1,
0,
0,
0,
0,
0,
0,
0,
0,
0,
0,
0,
0,
0,
0,
1,
0,
0,
0,
0,
0,
0,
0,
0,
0,
0,
0,
0,
0,
0,
0,
0,
0,
0,
0,
0,
0,
0,
0,
0,
0,
0,
0,
0,
0,
0,
0,
0,
0,
0,
0,
0,
0,
0,
0,
0,
0,
0,
0,
0,
0,
0,
0,
0,
0,
0,
0,
0,
0,
0,
0,
0,
0,
0,
0,
0,
0,
0,
0,
0,
0,
0,
0,
0,
0,
0,
0,
0,
0,
0,
0,
0,
0,
0,
0,
0,
0,
0,
0,
0,
0,
0,
0,
0,
0,
0,
0,
0,
0,
0,
0,
0,
0,
0,
0,
0,
#ENDOFDATA   :