File: N132962/Quantification/20 keV/MMM2/SPI MM2 SPI Plagioclase[3][4].msa
#FORMAT      : EMSA/MAS Spectral Data File
#VERSION     : 1.0
#TITLE       : SPI MM2 SPI Plagioclase[3][all]
#DATE        : 13-MAR-2025
#TIME        : 10:54
#OWNER       : Unknown
#NPOINTS     : 4096
#NCOLUMNS    : 1
#XUNITS      : eV
#YUNITS      : counts
#DATATYPE    : Y
#XPERCHAN    : 9.99778
#OFFSET      : 1.69135
#BEAMKV      : 20
#SIGNALTYPE  : EDS
#ELEVANGLE   : 35
#AZIMANGLE   : 0
#LIVETIME    : 239.831
#REALTIME    : 255.402
#PROBECUR    : 1.02609
#TAUWIND     : 0
#TDEADLYR    : 0
#TACTLYR     : 0.045
#TALWIND     : 0.025
#CHOFFSET    : 0.0
#XLABEL      : Energy (eV)
#YLABEL      : Counts
#XPOSITION   : -1.35063
#YPOSITION   : -0.23626
#ZPOSITION   : 31.0351
#EDSDET      : SD
##SPECIMEN   : SPI MM2 SPI Plagioclase[3][all]
##D2STDCMP   : SPI Plagioclase,(O:46.79),(Na:3.24),(Al:15.54),(Si:24.83),(K:0.2),(Ca:8.53),(Fe:0.27)
##DET_HASH   : 12273538-fd48-a23f-0a19-f1e6fa85caef
##CALIB_HASH : 6abaa72c-aa41-8738-0be9-f592914732f3
##WORKING    : 15.0 mm
##DET_NAME   : EDAX All
##DET_MODE   : MediumLE
#SPECTRUM    :
31,
179,
9450,
4869,
48156,
2231,
2636,
6997,
4514,
4632,
12706,
48570,
55510,
26639,
2922,
2296,
2747,
2348,
2295,
2280,
2282,
2247,
2159,
2619,
2974,
2422,
22459,
8293,
2599,
4840,
1650,
1523,
1729,
1483,
1365,
1353,
1358,
1354,
1289,
1272,
1214,
1074,
1137,
1031,
965,
1099,
1351,
902,
815,
805,
904,
789,
761,
767,
736,
686,
664,
653,
604,
621,
596,
565,
534,
481,
517,
523,
504,
453,
451,
429,
432,
410,
414,
352,
372,
352,
341,
306,
342,
290,
280,
282,
243,
246,
254,
240,
236,
199,
228,
211,
174,
170,
183,
163,
146,
139,
118,
133,
135,
123,
115,
112,
107,
88,
96,
92,
76,
68,
68,
60,
52,
59,
49,
54,
58,
48,
49,
36,
40,
35,
27,
35,
34,
29,
17,
17,
23,
11,
15,
13,
15,
15,
9,
12,
5,
8,
7,
6,
5,
2,
4,
1,
1,
0,
0,
0,
0,
0,
0,
2,
0,
0,
0,
0,
0,
0,
0,
0,
0,
0,
0,
0,
0,
0,
0,
0,
0,
0,
0,
0,
0,
0,
0,
0,
0,
0,
0,
0,
0,
0,
0,
0,
0,
0,
0,
0,
0,
0,
0,
0,
0,
0,
0,
0,
0,
0,
0,
0,
0,
0,
0,
0,
0,
0,
0,
0,
0,
0,
0,
0,
0,
0,
0,
0,
0,
0,
0,
0,
0,
0,
0,
0,
0,
0,
0,
0,
0,
0,
0,
0,
0,
0,
0,
0,
0,
0,
0,
0,
0,
0,
0,
0,
0,
0,
0,
0,
0,
0,
0,
0,
0,
0,
0,
0,
0,
0,
0,
0,
0,
0,
0,
0,
0,
0,
0,
0,
0,
0,
0,
0,
0,
0,
0,
0,
0,
0,
0,
0,
0,
0,
0,
0,
0,
0,
0,
0,
0,
0,
0,
0,
0,
0,
0,
0,
#ENDOFDATA   :