File: N132962/Quantification/20 keV/MMM2/SPI MM2 Pyrope[5][4].msa
#FORMAT      : EMSA/MAS Spectral Data File
#VERSION     : 1.0
#TITLE       : SPI MM2 Pyrope[5][all]
#DATE        : 13-MAR-2025
#TIME        : 12:45
#OWNER       : Unknown
#NPOINTS     : 4096
#NCOLUMNS    : 1
#XUNITS      : eV
#YUNITS      : counts
#DATATYPE    : Y
#XPERCHAN    : 9.99778
#OFFSET      : 1.69135
#BEAMKV      : 20
#SIGNALTYPE  : EDS
#ELEVANGLE   : 35
#AZIMANGLE   : 0
#LIVETIME    : 240.022
#REALTIME    : 255.341
#PROBECUR    : 1.02627
#TAUWIND     : 0
#TDEADLYR    : 0
#TACTLYR     : 0.045
#TALWIND     : 0.025
#CHOFFSET    : 0.0
#XLABEL      : Energy (eV)
#YLABEL      : Counts
#XPOSITION   : 4.64812
#YPOSITION   : 1.52895
#ZPOSITION   : 31.03511
#EDSDET      : SD
##SPECIMEN   : SPI MM2 Pyrope[5][all]
##D2STDCMP   : Pyrope,(O:47.6258),(Mg:18.0873),(Al:13.3861),(Si:20.9007),5.0
##DET_HASH   : 12273538-fd48-a23f-0a19-f1e6fa85caef
##CALIB_HASH : 6abaa72c-aa41-8738-0be9-f592914732f3
##WORKING    : 15.0 mm
##DET_NAME   : EDAX All
##DET_MODE   : MediumLE
#SPECTRUM    :
23,
201,
9413,
5968,
59581,
7389,
2620,
3326,
4417,
95369,
8565,
30688,
41289,
20007,
2561,
2391,
2763,
2366,
2555,
2385,
2439,
2406,
2310,
2387,
2091,
2191,
9391,
4349,
2196,
2793,
1654,
1599,
2390,
1705,
1450,
1566,
1414,
1324,
1755,
2606,
1231,
1195,
1741,
1231,
1100,
3955,
10193,
1064,
954,
913,
1882,
1350,
736,
778,
720,
705,
714,
649,
687,
617,
563,
582,
551,
529,
553,
517,
501,
461,
500,
473,
432,
425,
397,
408,
380,
329,
333,
350,
293,
303,
263,
273,
286,
263,
241,
239,
219,
237,
220,
210,
216,
169,
147,
181,
147,
160,
155,
148,
127,
130,
129,
106,
98,
116,
105,
89,
88,
57,
62,
75,
59,
68,
69,
47,
52,
51,
32,
40,
42,
33,
29,
25,
23,
31,
19,
26,
32,
21,
21,
9,
15,
6,
13,
7,
13,
2,
12,
6,
3,
3,
4,
0,
2,
1,
0,
0,
0,
0,
0,
0,
0,
0,
0,
0,
1,
0,
0,
0,
0,
0,
0,
0,
0,
0,
0,
0,
0,
0,
0,
0,
0,
0,
0,
0,
0,
0,
0,
0,
0,
0,
0,
0,
0,
0,
0,
0,
0,
0,
0,
0,
0,
0,
0,
0,
1,
0,
0,
0,
0,
0,
0,
0,
0,
0,
0,
0,
0,
0,
0,
0,
0,
0,
0,
0,
0,
0,
0,
0,
0,
0,
0,
0,
0,
0,
0,
0,
0,
0,
0,
0,
0,
0,
0,
0,
0,
0,
0,
0,
0,
0,
0,
0,
0,
0,
0,
0,
0,
0,
0,
0,
0,
0,
0,
0,
0,
0,
0,
0,
0,
0,
0,
0,
0,
0,
0,
0,
0,
0,
0,
0,
0,
0,
0,
0,
0,
0,
0,
0,
0,
0,
0,
0,
0,
0,
0,
0,
0,
0,
0,
0,
0,
0,
0,
0,
#ENDOFDATA   :