File: N132962/Quantification/20 keV/MMM2/SPI MM2 SPI Monazite[1][4].msa
#FORMAT      : EMSA/MAS Spectral Data File
#VERSION     : 1.0
#TITLE       : SPI MM2 SPI Monazite[1][all]
#DATE        : 13-MAR-2025
#TIME        : 10:05
#OWNER       : Unknown
#NPOINTS     : 4096
#NCOLUMNS    : 1
#XUNITS      : eV
#YUNITS      : counts
#DATATYPE    : Y
#XPERCHAN    : 9.99778
#OFFSET      : 1.69135
#BEAMKV      : 20
#SIGNALTYPE  : EDS
#ELEVANGLE   : 35
#AZIMANGLE   : 0
#LIVETIME    : 239.936
#REALTIME    : 258.482
#PROBECUR    : 1.02627
#TAUWIND     : 0
#TDEADLYR    : 0
#TACTLYR     : 0.045
#TALWIND     : 0.025
#CHOFFSET    : 0.0
#XLABEL      : Energy (eV)
#YLABEL      : Counts
#XPOSITION   : 2.35882
#YPOSITION   : -2.7424
#ZPOSITION   : 31.03509
#EDSDET      : SD
##SPECIMEN   : SPI MM2 SPI Monazite[1][all]
##D2STDCMP   : SPI Monazite,(O:26.45),(Si:0.83),(P:11.85),(Ca:0.65),(Y:1.59),(La:7.84),(Ce:19.96),(Pr:2.47),(Nd:9.68),(Sm:3.7),(Eu:0.38),(Gd:2.89),(Tb:0.35),(Dy:1.21),(Pb:0.25),(Th:9.7),(U:0.16),5.0
##DET_HASH   : 12273538-fd48-a23f-0a19-f1e6fa85caef
##CALIB_HASH : 6abaa72c-aa41-8738-0be9-f592914732f3
##WORKING    : 15.0 mm
##DET_NAME   : EDAX All
##DET_MODE   : MediumLE
#SPECTRUM    :
25,
422,
17220,
7833,
41033,
9202,
10752,
9154,
7379,
6576,
5795,
5651,
7418,
7233,
36267,
13152,
5366,
6027,
5240,
5264,
5201,
11481,
11118,
7825,
6031,
4814,
5984,
4820,
4595,
4693,
4455,
4588,
4369,
13081,
13380,
17000,
11803,
15544,
15552,
6241,
11027,
9208,
4536,
7217,
5435,
4298,
3491,
4098,
3433,
2805,
2588,
2726,
2508,
2332,
2139,
2111,
2113,
1867,
1942,
1876,
1808,
1689,
1732,
1705,
1595,
1596,
1513,
1428,
1470,
1488,
1400,
1350,
1313,
1191,
1181,
1174,
1121,
1077,
1030,
1072,
1005,
989,
908,
917,
863,
788,
813,
748,
753,
692,
727,
690,
810,
768,
618,
630,
550,
539,
526,
502,
471,
466,
428,
400,
387,
387,
363,
345,
328,
308,
278,
295,
281,
248,
207,
183,
186,
161,
182,
170,
153,
150,
133,
121,
104,
105,
109,
97,
85,
67,
60,
71,
62,
48,
52,
30,
29,
30,
32,
21,
11,
17,
4,
0,
3,
7,
1,
5,
2,
0,
1,
2,
3,
4,
1,
0,
0,
1,
1,
0,
2,
0,
1,
0,
0,
1,
0,
0,
0,
0,
1,
1,
1,
0,
0,
0,
1,
0,
0,
0,
0,
1,
0,
0,
0,
0,
1,
0,
0,
1,
0,
0,
0,
0,
0,
0,
0,
0,
1,
0,
0,
0,
0,
0,
0,
0,
0,
0,
0,
0,
1,
0,
0,
0,
0,
0,
0,
0,
0,
0,
0,
0,
0,
0,
0,
0,
0,
0,
0,
0,
0,
0,
0,
0,
0,
0,
0,
0,
0,
0,
0,
0,
0,
0,
0,
0,
0,
0,
0,
0,
0,
0,
0,
0,
0,
0,
0,
0,
0,
0,
0,
0,
0,
0,
0,
0,
0,
0,
0,
0,
0,
0,
0,
0,
0,
0,
0,
0,
0,
0,
0,
0,
0,
0,
0,
0,
0,
0,
0,
0,
0,
0,
0,
0,
#ENDOFDATA   :