File: N132962/Quantification/20 keV/MMM2/SPI MM2 Pyrite[0][4].msa
#FORMAT      : EMSA/MAS Spectral Data File
#VERSION     : 1.0
#TITLE       : SPI MM2 Pyrite[0][all]
#DATE        : 13-MAR-2025
#TIME        : 12:49
#OWNER       : Unknown
#NPOINTS     : 4096
#NCOLUMNS    : 1
#XUNITS      : eV
#YUNITS      : counts
#DATATYPE    : Y
#XPERCHAN    : 9.99778
#OFFSET      : 1.69135
#BEAMKV      : 20
#SIGNALTYPE  : EDS
#ELEVANGLE   : 35
#AZIMANGLE   : 0
#LIVETIME    : 239.846
#REALTIME    : 262.003
#PROBECUR    : 1.02627
#TAUWIND     : 0
#TDEADLYR    : 0
#TACTLYR     : 0.045
#TALWIND     : 0.025
#CHOFFSET    : 0.0
#XLABEL      : Energy (eV)
#YLABEL      : Counts
#XPOSITION   : 7.85443
#YPOSITION   : 1.92288
#ZPOSITION   : 31.03511
#EDSDET      : SD
##SPECIMEN   : SPI MM2 Pyrite[0][all]
##DET_HASH   : 12273538-fd48-a23f-0a19-f1e6fa85caef
##CALIB_HASH : 6abaa72c-aa41-8738-0be9-f592914732f3
##WORKING    : 15.0 mm
##DET_NAME   : EDAX All
##DET_MODE   : MediumLE
#SPECTRUM    :
23,
766,
10894,
2658,
16662,
62713,
3467,
3641,
4309,
4907,
5492,
5825,
6188,
6340,
6132,
6411,
106196,
82776,
14229,
3138,
3188,
3256,
3232,
3046,
2986,
3033,
3083,
3038,
2799,
2798,
2791,
2703,
2733,
3701,
2557,
2533,
2349,
2204,
2288,
2193,
2098,
2043,
2011,
2004,
2152,
22778,
68769,
2525,
1753,
1996,
9247,
5345,
1291,
1330,
1282,
1190,
1200,
1187,
1127,
1122,
1035,
1099,
1197,
1099,
1003,
891,
935,
936,
904,
816,
813,
749,
798,
704,
723,
675,
640,
616,
629,
605,
591,
561,
526,
522,
480,
496,
445,
442,
436,
434,
440,
404,
381,
331,
298,
307,
288,
279,
272,
253,
235,
225,
195,
200,
202,
195,
185,
168,
177,
157,
133,
143,
128,
116,
117,
101,
102,
97,
66,
106,
71,
81,
59,
60,
68,
44,
53,
49,
35,
32,
34,
24,
27,
28,
15,
17,
16,
15,
11,
7,
8,
2,
3,
1,
1,
0,
1,
1,
0,
1,
1,
1,
2,
0,
0,
0,
0,
0,
2,
0,
0,
0,
0,
0,
0,
0,
0,
0,
0,
0,
0,
0,
0,
0,
0,
0,
0,
0,
1,
0,
0,
0,
0,
0,
0,
0,
0,
1,
0,
0,
0,
0,
0,
0,
0,
0,
0,
0,
0,
0,
0,
0,
0,
0,
0,
0,
0,
0,
0,
0,
0,
0,
0,
0,
0,
0,
0,
0,
0,
0,
0,
0,
0,
0,
0,
0,
0,
0,
0,
0,
0,
0,
0,
0,
0,
0,
0,
0,
0,
0,
0,
0,
0,
0,
0,
0,
0,
0,
0,
0,
0,
0,
0,
0,
0,
0,
0,
0,
0,
0,
0,
0,
0,
0,
0,
0,
0,
0,
0,
0,
0,
0,
0,
0,
0,
0,
0,
0,
0,
0,
0,
0,
0,
0,
0,
0,
0,
0,
0,
0,
0,
0,
0,
0,
#ENDOFDATA   :