File: N132962/Quantification/20 keV/MMM2/SPI MM2 Wollastonite[5][4].msa
#FORMAT      : EMSA/MAS Spectral Data File
#VERSION     : 1.0
#TITLE       : SPI MM2 Wollastonite[5][all]
#DATE        : 13-MAR-2025
#TIME        : 13:59
#OWNER       : Unknown
#NPOINTS     : 4096
#NCOLUMNS    : 1
#XUNITS      : eV
#YUNITS      : counts
#DATATYPE    : Y
#XPERCHAN    : 9.99778
#OFFSET      : 1.69135
#BEAMKV      : 20
#SIGNALTYPE  : EDS
#ELEVANGLE   : 35
#AZIMANGLE   : 0
#LIVETIME    : 239.908
#REALTIME    : 256.243
#PROBECUR    : 1.0264
#TAUWIND     : 0
#TDEADLYR    : 0
#TACTLYR     : 0.045
#TALWIND     : 0.025
#CHOFFSET    : 0.0
#XLABEL      : Energy (eV)
#YLABEL      : Counts
#XPOSITION   : 0.04219
#YPOSITION   : 6.24099
#ZPOSITION   : 31.03511
#EDSDET      : SD
##SPECIMEN   : SPI MM2 Wollastonite[5][all]
##DET_HASH   : 12273538-fd48-a23f-0a19-f1e6fa85caef
##CALIB_HASH : 6abaa72c-aa41-8738-0be9-f592914732f3
##WORKING    : 15.0 mm
##DET_NAME   : EDAX All
##DET_MODE   : MediumLE
#SPECTRUM    :
24,
181,
13847,
3068,
24327,
2139,
2661,
3211,
3682,
4295,
4835,
5606,
66281,
31616,
4768,
3084,
3476,
3109,
3068,
3033,
2953,
2854,
2786,
2837,
2582,
3685,
87094,
29262,
5895,
14524,
1770,
1562,
1574,
1553,
1572,
1546,
1448,
1398,
1429,
1744,
1299,
1279,
1321,
1203,
1134,
1221,
1145,
1063,
987,
1016,
985,
916,
905,
1004,
864,
837,
772,
821,
751,
741,
656,
677,
656,
635,
649,
561,
549,
531,
536,
567,
485,
513,
469,
443,
448,
420,
390,
418,
413,
373,
351,
344,
300,
307,
301,
284,
250,
269,
215,
220,
240,
220,
213,
214,
196,
182,
165,
172,
152,
160,
148,
143,
123,
113,
117,
118,
104,
98,
101,
104,
81,
76,
66,
62,
55,
68,
46,
47,
54,
54,
45,
39,
31,
35,
28,
24,
24,
20,
23,
21,
23,
24,
11,
8,
14,
5,
6,
5,
2,
7,
2,
2,
0,
1,
0,
0,
2,
0,
0,
0,
1,
0,
0,
0,
0,
1,
0,
0,
0,
0,
0,
0,
0,
0,
0,
0,
0,
0,
0,
1,
0,
0,
0,
0,
0,
0,
0,
0,
0,
0,
0,
0,
0,
1,
0,
0,
0,
0,
0,
0,
0,
0,
0,
0,
0,
0,
0,
0,
0,
0,
0,
0,
0,
0,
0,
0,
0,
0,
0,
0,
0,
0,
0,
1,
0,
0,
0,
0,
0,
0,
0,
0,
0,
0,
0,
0,
0,
0,
0,
0,
0,
0,
0,
0,
0,
0,
0,
0,
0,
0,
0,
0,
0,
0,
0,
0,
0,
0,
0,
0,
0,
0,
0,
0,
0,
0,
0,
0,
0,
0,
0,
0,
0,
0,
0,
0,
0,
0,
0,
0,
0,
0,
0,
0,
0,
0,
0,
0,
0,
0,
0,
0,
0,
0,
0,
0,
0,
0,
0,
0,
0,
0,
0,
0,
#ENDOFDATA   :