File: N132962/Quantification/20 keV/MMM2/SPI MM2 Willemite[2][4].msa
#FORMAT      : EMSA/MAS Spectral Data File
#VERSION     : 1.0
#TITLE       : SPI MM2 Willemite[2][all]
#DATE        : 13-MAR-2025
#TIME        : 14:05
#OWNER       : Unknown
#NPOINTS     : 4096
#NCOLUMNS    : 1
#XUNITS      : eV
#YUNITS      : counts
#DATATYPE    : Y
#XPERCHAN    : 9.99778
#OFFSET      : 1.69135
#BEAMKV      : 20
#SIGNALTYPE  : EDS
#ELEVANGLE   : 35
#AZIMANGLE   : 0
#LIVETIME    : 239.727
#REALTIME    : 257.387
#PROBECUR    : 1.0264
#TAUWIND     : 0
#TDEADLYR    : 0
#TACTLYR     : 0.045
#TALWIND     : 0.025
#CHOFFSET    : 0.0
#XLABEL      : Energy (eV)
#YLABEL      : Counts
#XPOSITION   : 2.75675
#YPOSITION   : 6.2718
#ZPOSITION   : 31.03511
#EDSDET      : SD
##SPECIMEN   : SPI MM2 Willemite[2][all]
##DET_HASH   : 12273538-fd48-a23f-0a19-f1e6fa85caef
##CALIB_HASH : 6abaa72c-aa41-8738-0be9-f592914732f3
##WORKING    : 15.0 mm
##DET_NAME   : EDAX All
##DET_MODE   : MediumLE
#SPECTRUM    :
32,
243,
11315,
6077,
43084,
4759,
11409,
138391,
5794,
3780,
3378,
4378,
24803,
13500,
3578,
3632,
3742,
3792,
3720,
3799,
3791,
3491,
3625,
3545,
3358,
3427,
3199,
3168,
2973,
2933,
2906,
2817,
2651,
2565,
2554,
2496,
2474,
2354,
2253,
2079,
2173,
2287,
11924,
2722,
1864,
1913,
2966,
1969,
1636,
1680,
1673,
1525,
1481,
1532,
1399,
1307,
1284,
1242,
1227,
1283,
1450,
20085,
33623,
1682,
1028,
992,
1046,
1199,
5651,
3263,
793,
776,
722,
657,
706,
672,
671,
606,
591,
582,
604,
487,
515,
509,
516,
468,
422,
409,
401,
403,
407,
378,
317,
352,
311,
315,
271,
293,
248,
280,
244,
230,
216,
234,
197,
204,
193,
175,
176,
140,
119,
136,
115,
118,
111,
103,
108,
93,
77,
67,
83,
70,
68,
86,
64,
62,
52,
51,
48,
32,
42,
32,
27,
20,
19,
18,
16,
15,
12,
12,
9,
1,
1,
3,
0,
0,
0,
0,
0,
2,
0,
0,
1,
0,
0,
0,
1,
0,
0,
1,
0,
1,
0,
1,
0,
0,
1,
0,
0,
1,
0,
1,
1,
0,
0,
0,
0,
0,
0,
1,
0,
0,
0,
0,
0,
0,
0,
0,
0,
0,
0,
0,
0,
0,
1,
0,
0,
0,
0,
0,
0,
0,
0,
0,
0,
0,
0,
0,
0,
0,
0,
0,
0,
0,
0,
0,
0,
0,
0,
0,
0,
0,
0,
0,
0,
0,
0,
0,
0,
0,
0,
0,
0,
0,
0,
0,
0,
0,
0,
0,
0,
0,
0,
0,
0,
0,
0,
0,
0,
0,
0,
0,
0,
0,
0,
0,
0,
0,
0,
0,
0,
0,
0,
0,
0,
0,
0,
0,
0,
0,
0,
0,
0,
0,
0,
0,
0,
0,
0,
0,
0,
0,
0,
0,
0,
0,
0,
0,
0,
0,
0,
0,
0,
0,
#ENDOFDATA   :