File: N132962/Quantification/20 keV/MMM2/SPI MM2 SPI Obsidian[7][4].msa
#FORMAT      : EMSA/MAS Spectral Data File
#VERSION     : 1.0
#TITLE       : SPI MM2 SPI Obsidian[7][all]
#DATE        : 13-MAR-2025
#TIME        : 10:02
#OWNER       : Unknown
#NPOINTS     : 4096
#NCOLUMNS    : 1
#XUNITS      : eV
#YUNITS      : counts
#DATATYPE    : Y
#XPERCHAN    : 9.99778
#OFFSET      : 1.69135
#BEAMKV      : 20
#SIGNALTYPE  : EDS
#ELEVANGLE   : 35
#AZIMANGLE   : 0
#LIVETIME    : 239.86
#REALTIME    : 256.308
#PROBECUR    : 1.02627
#TAUWIND     : 0
#TDEADLYR    : 0
#TACTLYR     : 0.045
#TALWIND     : 0.025
#CHOFFSET    : 0.0
#XLABEL      : Energy (eV)
#YLABEL      : Counts
#XPOSITION   : -0.0059
#YPOSITION   : -2.98673
#ZPOSITION   : 31.03509
#EDSDET      : SD
##SPECIMEN   : SPI MM2 SPI Obsidian[7][all]
##D2STDCMP   : SPI Obsidian,(O:49.01),(Na:2.77),(Mg:0.06),(Al:6.9),(Si:35.66),(K:3.58),(Ca:0.63),(Ti:0.06),(Mn:0.04),(Fe:0.59),5.0
##DET_HASH   : 12273538-fd48-a23f-0a19-f1e6fa85caef
##CALIB_HASH : 6abaa72c-aa41-8738-0be9-f592914732f3
##WORKING    : 15.0 mm
##DET_NAME   : EDAX All
##DET_MODE   : MediumLE
#SPECTRUM    :
27,
195,
8608,
5714,
57588,
2585,
2634,
6606,
4274,
4517,
7961,
25223,
87525,
40766,
2282,
2143,
2966,
2244,
2254,
2173,
2254,
2094,
2163,
4153,
12092,
2753,
4380,
2155,
1755,
1805,
1528,
1596,
1814,
1471,
1443,
1369,
1386,
1288,
1210,
1248,
1146,
1061,
1093,
966,
1012,
1235,
1792,
869,
856,
806,
918,
821,
707,
763,
653,
635,
658,
609,
605,
590,
599,
563,
521,
534,
473,
451,
461,
460,
433,
418,
366,
393,
383,
361,
342,
320,
343,
339,
295,
291,
320,
246,
241,
244,
225,
223,
199,
194,
172,
168,
180,
192,
171,
161,
131,
148,
133,
126,
102,
89,
105,
113,
90,
99,
89,
85,
83,
74,
62,
50,
62,
54,
46,
58,
56,
46,
39,
31,
40,
29,
32,
23,
25,
21,
26,
23,
21,
14,
18,
16,
11,
11,
9,
8,
14,
6,
6,
5,
9,
6,
2,
1,
2,
0,
0,
1,
0,
0,
0,
0,
0,
0,
0,
0,
0,
0,
1,
0,
1,
1,
0,
0,
0,
0,
0,
0,
0,
0,
0,
0,
0,
0,
0,
0,
0,
0,
0,
0,
0,
0,
0,
0,
0,
0,
0,
0,
0,
0,
0,
0,
0,
0,
0,
0,
0,
0,
0,
0,
0,
0,
0,
0,
0,
0,
1,
0,
0,
0,
0,
0,
0,
0,
0,
0,
0,
0,
0,
0,
0,
0,
0,
0,
0,
0,
0,
0,
0,
0,
0,
0,
0,
0,
0,
0,
0,
0,
0,
0,
0,
0,
0,
0,
0,
0,
0,
0,
0,
0,
0,
0,
0,
0,
0,
0,
0,
0,
0,
0,
0,
0,
0,
0,
0,
0,
0,
0,
0,
0,
0,
0,
0,
0,
0,
0,
0,
0,
0,
0,
0,
0,
0,
0,
0,
0,
0,
0,
0,
0,
0,
0,
0,
0,
0,
0,
#ENDOFDATA   :