File: N132962/Quantification/20 keV/MMM2/SPI MM2 C[1][4].msa
#FORMAT      : EMSA/MAS Spectral Data File
#VERSION     : 1.0
#TITLE       : SPI MM2 C[1][all]
#DATE        : 13-MAR-2025
#TIME        : 14:22
#OWNER       : Unknown
#NPOINTS     : 4096
#NCOLUMNS    : 1
#XUNITS      : eV
#YUNITS      : counts
#DATATYPE    : Y
#XPERCHAN    : 9.99778
#OFFSET      : 1.69135
#BEAMKV      : 20
#SIGNALTYPE  : EDS
#ELEVANGLE   : 35
#AZIMANGLE   : 0
#LIVETIME    : 240.006
#REALTIME    : 250.916
#PROBECUR    : 1.02609
#TAUWIND     : 0
#TDEADLYR    : 0
#TACTLYR     : 0.045
#TALWIND     : 0.025
#CHOFFSET    : 0.0
#XLABEL      : Energy (eV)
#YLABEL      : Counts
#XPOSITION   : 3.26382
#YPOSITION   : 8.85048
#ZPOSITION   : 31.03511
#EDSDET      : SD
##SPECIMEN   : SPI MM2 C[1][all]
##D2STDCMP   : C,(C:100.0)
##DET_HASH   : 12273538-fd48-a23f-0a19-f1e6fa85caef
##CALIB_HASH : 6abaa72c-aa41-8738-0be9-f592914732f3
##WORKING    : 15.0 mm
##DET_NAME   : EDAX All
##DET_MODE   : MediumLE
#SPECTRUM    :
24,
917,
446065,
568,
2348,
1195,
1518,
1908,
2317,
2425,
2642,
2623,
2546,
2407,
2068,
1941,
1818,
1761,
1585,
1481,
1456,
1278,
1242,
1128,
1153,
1093,
1035,
931,
930,
883,
828,
796,
765,
731,
670,
645,
642,
586,
587,
597,
518,
523,
434,
465,
434,
445,
502,
393,
384,
382,
340,
319,
346,
368,
305,
276,
274,
285,
281,
221,
226,
219,
220,
207,
200,
198,
176,
169,
173,
149,
170,
168,
147,
133,
137,
125,
139,
129,
120,
95,
90,
117,
116,
100,
99,
82,
89,
77,
70,
78,
51,
64,
50,
64,
66,
56,
48,
55,
59,
46,
33,
46,
37,
40,
15,
25,
26,
14,
36,
15,
22,
24,
20,
17,
19,
22,
19,
11,
10,
11,
10,
12,
4,
5,
7,
10,
6,
2,
1,
3,
6,
3,
5,
1,
2,
0,
1,
0,
2,
2,
0,
0,
0,
0,
0,
0,
0,
0,
0,
0,
0,
0,
0,
0,
0,
0,
0,
0,
0,
0,
0,
0,
0,
0,
0,
0,
0,
0,
0,
0,
0,
0,
0,
0,
0,
0,
0,
0,
0,
0,
0,
0,
0,
0,
0,
0,
0,
0,
0,
0,
0,
0,
0,
0,
0,
0,
0,
0,
0,
0,
0,
0,
0,
0,
0,
0,
0,
0,
0,
0,
0,
0,
0,
0,
0,
0,
0,
0,
0,
0,
0,
0,
0,
0,
0,
0,
0,
0,
0,
0,
0,
0,
0,
0,
0,
0,
0,
0,
0,
0,
0,
0,
0,
0,
0,
0,
0,
0,
0,
0,
0,
0,
0,
0,
0,
0,
0,
0,
0,
0,
0,
0,
0,
0,
0,
0,
0,
0,
0,
0,
0,
0,
0,
0,
0,
0,
0,
0,
0,
0,
0,
0,
0,
0,
0,
0,
0,
0,
0,
0,
0,
0,
0,
0,
#ENDOFDATA   :