File: N132962/Quantification/20 keV/MMM2/SPI MM2 Sphene[3][4].msa
#FORMAT      : EMSA/MAS Spectral Data File
#VERSION     : 1.0
#TITLE       : SPI MM2 Sphene[3][all]
#DATE        : 13-MAR-2025
#TIME        : 13:01
#OWNER       : Unknown
#NPOINTS     : 4096
#NCOLUMNS    : 1
#XUNITS      : eV
#YUNITS      : counts
#DATATYPE    : Y
#XPERCHAN    : 9.99778
#OFFSET      : 1.69135
#BEAMKV      : 20
#SIGNALTYPE  : EDS
#ELEVANGLE   : 35
#AZIMANGLE   : 0
#LIVETIME    : 239.909
#REALTIME    : 254.883
#PROBECUR    : 1.02627
#TAUWIND     : 0
#TDEADLYR    : 0
#TACTLYR     : 0.045
#TALWIND     : 0.025
#CHOFFSET    : 0.0
#XLABEL      : Energy (eV)
#YLABEL      : Counts
#XPOSITION   : 6.08936
#YPOSITION   : 3.70473
#ZPOSITION   : 31.03511
#EDSDET      : SD
##SPECIMEN   : SPI MM2 Sphene[3][all]
##DET_HASH   : 12273538-fd48-a23f-0a19-f1e6fa85caef
##CALIB_HASH : 6abaa72c-aa41-8738-0be9-f592914732f3
##WORKING    : 15.0 mm
##DET_NAME   : EDAX All
##DET_MODE   : MediumLE
#SPECTRUM    :
28,
194,
13635,
7798,
21769,
2455,
2439,
2846,
3389,
4031,
4877,
6846,
38815,
19462,
4513,
3541,
3798,
3446,
3310,
3289,
3454,
3077,
3038,
3051,
2680,
3261,
55362,
19302,
4679,
9981,
1968,
2686,
61738,
8255,
2071,
9593,
2772,
1413,
1455,
1493,
1365,
1364,
1313,
1218,
1224,
1429,
1843,
1116,
1098,
1066,
1113,
1025,
949,
986,
850,
850,
807,
827,
801,
739,
813,
699,
745,
685,
648,
615,
609,
591,
551,
538,
535,
514,
475,
447,
443,
445,
455,
430,
436,
354,
362,
364,
350,
339,
350,
310,
323,
252,
285,
248,
244,
243,
233,
212,
206,
206,
170,
170,
170,
147,
146,
143,
141,
121,
124,
124,
113,
94,
89,
82,
86,
78,
81,
64,
58,
72,
63,
51,
45,
47,
47,
41,
32,
36,
36,
35,
30,
28,
18,
27,
23,
20,
16,
19,
10,
12,
8,
8,
6,
9,
5,
4,
2,
0,
1,
0,
0,
0,
0,
0,
0,
0,
0,
0,
1,
0,
0,
1,
1,
0,
0,
0,
1,
1,
0,
0,
0,
0,
0,
0,
0,
0,
0,
0,
0,
0,
0,
0,
0,
0,
0,
0,
0,
0,
0,
0,
0,
0,
1,
0,
0,
0,
0,
0,
0,
0,
0,
0,
0,
0,
0,
0,
0,
0,
0,
0,
0,
0,
0,
0,
0,
0,
0,
0,
0,
0,
0,
0,
0,
0,
0,
0,
0,
0,
0,
0,
0,
0,
0,
0,
0,
0,
0,
0,
0,
0,
0,
0,
0,
0,
0,
0,
0,
0,
0,
0,
0,
0,
0,
0,
0,
0,
0,
0,
0,
0,
0,
0,
0,
0,
0,
0,
0,
0,
0,
0,
0,
0,
0,
0,
0,
0,
0,
0,
0,
0,
0,
0,
0,
0,
0,
0,
0,
0,
0,
0,
0,
0,
0,
0,
0,
0,
0,
0,
#ENDOFDATA   :