File: N132962/Quantification/20 keV/MMM2/SPI MM2 C[5][4].msa
#FORMAT      : EMSA/MAS Spectral Data File
#VERSION     : 1.0
#TITLE       : SPI MM2 C[5][all]
#DATE        : 13-MAR-2025
#TIME        : 14:26
#OWNER       : Unknown
#NPOINTS     : 4096
#NCOLUMNS    : 1
#XUNITS      : eV
#YUNITS      : counts
#DATATYPE    : Y
#XPERCHAN    : 9.99778
#OFFSET      : 1.69135
#BEAMKV      : 20
#SIGNALTYPE  : EDS
#ELEVANGLE   : 35
#AZIMANGLE   : 0
#LIVETIME    : 239.994
#REALTIME    : 250.918
#PROBECUR    : 1.02609
#TAUWIND     : 0
#TDEADLYR    : 0
#TACTLYR     : 0.045
#TALWIND     : 0.025
#CHOFFSET    : 0.0
#XLABEL      : Energy (eV)
#YLABEL      : Counts
#XPOSITION   : 3.27921
#YPOSITION   : 8.99253
#ZPOSITION   : 31.03511
#EDSDET      : SD
##SPECIMEN   : SPI MM2 C[5][all]
##D2STDCMP   : C,(C:100.0)
##DET_HASH   : 12273538-fd48-a23f-0a19-f1e6fa85caef
##CALIB_HASH : 6abaa72c-aa41-8738-0be9-f592914732f3
##WORKING    : 15.0 mm
##DET_NAME   : EDAX All
##DET_MODE   : MediumLE
#SPECTRUM    :
24,
927,
444780,
569,
2317,
1239,
1547,
1901,
2238,
2539,
2581,
2643,
2622,
2434,
1980,
2011,
1812,
1741,
1533,
1485,
1356,
1361,
1270,
1204,
1153,
1074,
999,
906,
901,
892,
825,
790,
762,
679,
649,
674,
645,
556,
573,
586,
490,
530,
481,
440,
487,
452,
462,
390,
375,
381,
364,
368,
298,
311,
304,
309,
288,
259,
256,
248,
232,
229,
220,
213,
221,
181,
169,
191,
169,
152,
171,
163,
141,
142,
133,
125,
120,
129,
127,
113,
97,
109,
97,
110,
103,
75,
82,
66,
87,
68,
72,
66,
70,
58,
67,
60,
52,
54,
46,
48,
36,
40,
28,
38,
34,
22,
29,
27,
27,
31,
11,
21,
22,
21,
19,
14,
16,
15,
13,
12,
15,
11,
7,
4,
8,
6,
7,
4,
5,
3,
3,
1,
4,
4,
4,
1,
2,
2,
2,
1,
0,
0,
0,
0,
0,
0,
0,
0,
0,
0,
0,
0,
0,
0,
1,
0,
0,
0,
0,
0,
0,
0,
0,
0,
0,
0,
0,
0,
0,
0,
0,
0,
0,
0,
0,
0,
0,
0,
0,
0,
0,
0,
0,
0,
0,
0,
0,
0,
0,
0,
0,
0,
0,
0,
0,
0,
0,
0,
0,
0,
0,
0,
0,
0,
0,
0,
0,
0,
0,
0,
0,
0,
0,
0,
0,
0,
0,
0,
0,
0,
0,
0,
0,
0,
0,
0,
0,
0,
0,
0,
0,
0,
0,
0,
0,
0,
0,
0,
0,
0,
0,
0,
0,
0,
0,
0,
0,
0,
0,
0,
0,
0,
0,
0,
0,
0,
0,
0,
0,
0,
0,
0,
0,
0,
0,
0,
0,
0,
0,
0,
0,
0,
0,
0,
0,
0,
0,
0,
0,
0,
0,
0,
0,
0,
0,
0,
0,
0,
0,
0,
0,
0,
0,
0,
#ENDOFDATA   :