File: N132962/Quantification/20 keV/MMM2/SPI MM2 Zircon[3][4].msa
#FORMAT      : EMSA/MAS Spectral Data File
#VERSION     : 1.0
#TITLE       : SPI MM2 Zircon[3][all]
#DATE        : 13-MAR-2025
#TIME        : 13:48
#OWNER       : Unknown
#NPOINTS     : 4096
#NCOLUMNS    : 1
#XUNITS      : eV
#YUNITS      : counts
#DATATYPE    : Y
#XPERCHAN    : 9.99778
#OFFSET      : 1.69135
#BEAMKV      : 20
#SIGNALTYPE  : EDS
#ELEVANGLE   : 35
#AZIMANGLE   : 0
#LIVETIME    : 239.661
#REALTIME    : 256.684
#PROBECUR    : 1.0264
#TAUWIND     : 0
#TDEADLYR    : 0
#TACTLYR     : 0.045
#TALWIND     : 0.025
#CHOFFSET    : 0.0
#XLABEL      : Energy (eV)
#YLABEL      : Counts
#XPOSITION   : -2.66965
#YPOSITION   : 6.6381
#ZPOSITION   : 31.03511
#EDSDET      : SD
##SPECIMEN   : SPI MM2 Zircon[3][all]
##DET_HASH   : 12273538-fd48-a23f-0a19-f1e6fa85caef
##CALIB_HASH : 6abaa72c-aa41-8738-0be9-f592914732f3
##WORKING    : 15.0 mm
##DET_NAME   : EDAX All
##DET_MODE   : MediumLE
#SPECTRUM    :
21,
699,
14570,
4567,
26173,
4491,
4343,
4605,
5452,
6520,
6924,
7911,
48751,
30617,
27566,
94187,
11618,
3243,
4012,
3181,
3070,
3106,
3057,
3088,
3131,
3131,
3149,
3223,
2996,
3001,
2888,
2701,
2681,
2590,
2443,
2468,
2428,
2333,
2297,
2207,
2138,
2184,
2085,
2081,
1917,
2749,
4233,
1711,
1634,
1741,
1921,
1683,
1566,
1602,
1470,
1462,
1604,
1491,
1321,
1277,
1261,
1206,
1124,
1115,
1069,
1148,
1121,
1067,
956,
908,
953,
909,
789,
779,
768,
783,
732,
685,
686,
678,
668,
647,
578,
590,
521,
552,
492,
507,
464,
453,
437,
440,
406,
391,
365,
348,
338,
324,
280,
283,
271,
248,
234,
256,
231,
216,
225,
173,
170,
180,
145,
234,
467,
345,
142,
130,
105,
120,
90,
97,
80,
76,
81,
74,
62,
74,
100,
68,
52,
39,
37,
27,
30,
27,
14,
17,
15,
16,
11,
9,
8,
7,
0,
0,
0,
0,
0,
0,
1,
1,
1,
1,
0,
0,
0,
0,
0,
2,
0,
2,
0,
2,
0,
0,
0,
0,
0,
0,
0,
0,
1,
0,
0,
0,
0,
0,
0,
1,
1,
0,
2,
0,
1,
0,
0,
0,
0,
0,
0,
0,
0,
0,
0,
0,
0,
0,
0,
0,
0,
0,
0,
0,
0,
0,
0,
0,
0,
0,
0,
0,
0,
0,
0,
0,
0,
0,
0,
0,
0,
0,
0,
0,
0,
0,
0,
0,
0,
0,
0,
0,
0,
0,
0,
0,
0,
0,
0,
0,
0,
0,
0,
0,
0,
0,
0,
0,
0,
0,
0,
0,
0,
0,
0,
0,
0,
0,
0,
0,
0,
0,
0,
0,
0,
0,
0,
0,
0,
0,
0,
0,
0,
0,
0,
0,
0,
0,
0,
0,
0,
0,
0,
0,
0,
0,
0,
0,
0,
0,
0,
0,
0,
0,
0,
0,
#ENDOFDATA   :