File: N132962/Quantification/20 keV/MMM2/SPI MM2 SPI Mangotantalite[2][4].msa
#FORMAT      : EMSA/MAS Spectral Data File
#VERSION     : 1.0
#TITLE       : SPI MM2 SPI Mangotantalite[2][all]
#DATE        : 13-MAR-2025
#TIME        : 09:38
#OWNER       : Unknown
#NPOINTS     : 4096
#NCOLUMNS    : 1
#XUNITS      : eV
#YUNITS      : counts
#DATATYPE    : Y
#XPERCHAN    : 9.99778
#OFFSET      : 1.69135
#BEAMKV      : 20
#SIGNALTYPE  : EDS
#ELEVANGLE   : 35
#AZIMANGLE   : 0
#LIVETIME    : 239.87
#REALTIME    : 261.98
#PROBECUR    : 1.02582
#TAUWIND     : 0
#TDEADLYR    : 0
#TACTLYR     : 0.045
#TALWIND     : 0.025
#CHOFFSET    : 0.0
#XLABEL      : Energy (eV)
#YLABEL      : Counts
#XPOSITION   : -1.70302
#YPOSITION   : -4.59263
#ZPOSITION   : 31.03509
#EDSDET      : SD
##SPECIMEN   : SPI MM2 SPI Mangotantalite[2][all]
##DET_HASH   : 12273538-fd48-a23f-0a19-f1e6fa85caef
##CALIB_HASH : 6abaa72c-aa41-8738-0be9-f592914732f3
##WORKING    : 15.0 mm
##DET_NAME   : EDAX All
##DET_MODE   : MediumLE
#SPECTRUM    :
22,
689,
14726,
6156,
24825,
7778,
5756,
6499,
7295,
10117,
11269,
9879,
138167,
29515,
9936,
12466,
19208,
6373,
4806,
5112,
4580,
4752,
4930,
4838,
4854,
4930,
4714,
4751,
4771,
4645,
4699,
4476,
5456,
4548,
4355,
4373,
4258,
4062,
4000,
3830,
3808,
4395,
27802,
5625,
3435,
4539,
9114,
4186,
2974,
2949,
3364,
4066,
3031,
2865,
2765,
2567,
2637,
4240,
26049,
6754,
2671,
2249,
2150,
2046,
2120,
2359,
6153,
9525,
4260,
5942,
2195,
1794,
1546,
1514,
1406,
1474,
1397,
1846,
2712,
1495,
1603,
1442,
1191,
1214,
1116,
1089,
1001,
936,
941,
926,
821,
853,
726,
729,
743,
712,
682,
631,
642,
627,
568,
539,
480,
509,
465,
471,
449,
431,
388,
354,
330,
322,
361,
312,
296,
277,
285,
223,
265,
226,
225,
181,
190,
179,
166,
145,
129,
117,
108,
119,
94,
84,
82,
63,
56,
56,
47,
41,
27,
26,
20,
12,
5,
6,
4,
3,
1,
2,
2,
3,
2,
2,
1,
0,
3,
0,
1,
1,
2,
1,
1,
4,
1,
1,
2,
1,
0,
0,
0,
1,
0,
0,
0,
1,
1,
1,
2,
1,
0,
0,
1,
2,
1,
1,
0,
1,
0,
0,
0,
0,
0,
0,
0,
0,
0,
1,
0,
0,
0,
0,
0,
2,
0,
0,
0,
0,
0,
0,
0,
0,
0,
0,
0,
0,
0,
0,
0,
0,
0,
0,
0,
1,
0,
0,
0,
0,
0,
0,
0,
0,
0,
0,
0,
0,
0,
1,
0,
0,
0,
0,
0,
0,
0,
0,
0,
0,
0,
0,
0,
0,
0,
0,
0,
0,
0,
0,
0,
0,
0,
0,
0,
0,
0,
0,
0,
0,
0,
0,
0,
0,
0,
0,
0,
0,
0,
0,
0,
0,
0,
0,
0,
0,
0,
0,
0,
0,
0,
0,
0,
0,
0,
0,
0,
0,
#ENDOFDATA   :