File: N132962/Quantification/20 keV/MMM2/SPI MM2 Pyrite[4][4].msa
#FORMAT      : EMSA/MAS Spectral Data File
#VERSION     : 1.0
#TITLE       : SPI MM2 Pyrite[4][all]
#DATE        : 13-MAR-2025
#TIME        : 12:53
#OWNER       : Unknown
#NPOINTS     : 4096
#NCOLUMNS    : 1
#XUNITS      : eV
#YUNITS      : counts
#DATATYPE    : Y
#XPERCHAN    : 9.99778
#OFFSET      : 1.69135
#BEAMKV      : 20
#SIGNALTYPE  : EDS
#ELEVANGLE   : 35
#AZIMANGLE   : 0
#LIVETIME    : 239.855
#REALTIME    : 262.0544
#PROBECUR    : 1.02627
#TAUWIND     : 0
#TDEADLYR    : 0
#TACTLYR     : 0.045
#TALWIND     : 0.025
#CHOFFSET    : 0.0
#XLABEL      : Energy (eV)
#YLABEL      : Counts
#XPOSITION   : 7.85067
#YPOSITION   : 1.87824
#ZPOSITION   : 31.03511
#EDSDET      : SD
##SPECIMEN   : SPI MM2 Pyrite[4][all]
##DET_HASH   : 12273538-fd48-a23f-0a19-f1e6fa85caef
##CALIB_HASH : 6abaa72c-aa41-8738-0be9-f592914732f3
##WORKING    : 15.0 mm
##DET_NAME   : EDAX All
##DET_MODE   : MediumLE
#SPECTRUM    :
17,
763,
11085,
2720,
17094,
62756,
3635,
3556,
4300,
5063,
5427,
5894,
6320,
6552,
6044,
6386,
107429,
83088,
14079,
3205,
3139,
3324,
3195,
3162,
3022,
3070,
2984,
2893,
2908,
2771,
2787,
2660,
2694,
3547,
2620,
2467,
2437,
2262,
2241,
2227,
2086,
2023,
2003,
1993,
2109,
22695,
68872,
2480,
1727,
1957,
9367,
5466,
1354,
1462,
1224,
1241,
1271,
1185,
1093,
1084,
1077,
1075,
1278,
1102,
969,
999,
929,
933,
865,
803,
775,
751,
769,
706,
681,
661,
664,
644,
600,
596,
598,
518,
558,
526,
479,
480,
453,
436,
429,
410,
379,
421,
398,
343,
328,
320,
292,
290,
258,
286,
236,
207,
241,
222,
172,
180,
149,
181,
157,
172,
154,
150,
145,
135,
134,
113,
102,
101,
76,
76,
53,
71,
63,
65,
56,
42,
44,
46,
34,
38,
39,
31,
29,
30,
25,
22,
15,
10,
5,
8,
5,
5,
4,
0,
2,
1,
2,
0,
2,
0,
0,
0,
1,
1,
1,
1,
0,
0,
0,
1,
0,
0,
0,
0,
1,
1,
0,
0,
0,
0,
0,
1,
0,
0,
1,
0,
1,
0,
0,
0,
0,
1,
0,
0,
0,
0,
0,
0,
0,
0,
0,
0,
0,
0,
0,
0,
1,
0,
0,
0,
0,
0,
0,
0,
1,
0,
0,
0,
0,
0,
0,
0,
0,
0,
0,
0,
0,
0,
0,
0,
0,
0,
0,
0,
0,
0,
0,
0,
0,
0,
0,
0,
0,
0,
0,
0,
0,
0,
0,
0,
0,
0,
0,
0,
0,
0,
0,
0,
0,
0,
0,
0,
0,
0,
0,
0,
0,
0,
0,
0,
0,
0,
0,
0,
0,
0,
0,
0,
0,
0,
0,
0,
0,
0,
0,
0,
0,
0,
0,
0,
0,
0,
0,
0,
0,
0,
0,
0,
0,
0,
0,
0,
0,
0,
#ENDOFDATA   :