File: N132962/Quantification/20 keV/MMM2/SPI MM2 SPI Pollucite[7][4].msa
#FORMAT      : EMSA/MAS Spectral Data File
#VERSION     : 1.0
#TITLE       : SPI MM2 SPI Pollucite[7][all]
#DATE        : 13-MAR-2025
#TIME        : 11:07
#OWNER       : Unknown
#NPOINTS     : 4096
#NCOLUMNS    : 1
#XUNITS      : eV
#YUNITS      : counts
#DATATYPE    : Y
#XPERCHAN    : 9.99778
#OFFSET      : 1.69135
#BEAMKV      : 20
#SIGNALTYPE  : EDS
#ELEVANGLE   : 35
#AZIMANGLE   : 0
#LIVETIME    : 239.72
#REALTIME    : 256.878
#PROBECUR    : 1.02609
#TAUWIND     : 0
#TDEADLYR    : 0
#TACTLYR     : 0.045
#TALWIND     : 0.025
#CHOFFSET    : 0.0
#XLABEL      : Energy (eV)
#YLABEL      : Counts
#XPOSITION   : -4.05832
#YPOSITION   : -1.07251
#ZPOSITION   : 31.0351
#EDSDET      : SD
##SPECIMEN   : SPI MM2 SPI Pollucite[7][all]
##D2STDCMP   : SPI Pollucite,(Li:0.05),(O:35.94),(Na:1.5),(Al:9.06),(Si:22.2),(K:0.05),(Rb:0.17),(Cs:32.3)
##DET_HASH   : 12273538-fd48-a23f-0a19-f1e6fa85caef
##CALIB_HASH : 6abaa72c-aa41-8738-0be9-f592914732f3
##WORKING    : 15.0 mm
##DET_NAME   : EDAX All
##DET_MODE   : MediumLE
#SPECTRUM    :
23,
253,
11269,
7716,
63883,
4912,
3320,
5690,
4016,
4229,
7951,
23255,
45437,
22563,
3702,
3706,
3960,
3837,
4150,
3679,
3633,
3608,
3482,
3644,
3503,
3355,
3367,
4734,
3138,
3208,
13403,
28613,
3428,
24403,
6799,
8007,
3563,
2826,
4357,
2373,
2692,
2016,
1807,
1794,
1651,
1709,
1860,
1616,
1634,
1457,
1436,
1456,
1395,
1437,
1384,
1291,
1176,
1199,
1239,
1151,
1122,
1149,
1055,
1037,
997,
979,
951,
850,
892,
857,
787,
805,
786,
749,
700,
727,
680,
700,
649,
644,
563,
567,
570,
496,
528,
491,
517,
440,
440,
447,
433,
374,
368,
351,
328,
354,
300,
298,
292,
256,
290,
241,
234,
218,
187,
182,
209,
170,
179,
170,
141,
162,
130,
142,
131,
105,
125,
88,
92,
96,
78,
64,
65,
71,
61,
61,
47,
48,
43,
38,
31,
34,
26,
23,
15,
18,
13,
10,
16,
4,
6,
5,
1,
1,
1,
1,
0,
0,
2,
1,
0,
1,
2,
0,
0,
0,
0,
1,
0,
0,
0,
0,
0,
0,
0,
0,
0,
1,
0,
0,
0,
0,
0,
0,
0,
0,
0,
0,
0,
0,
0,
0,
0,
0,
0,
0,
0,
0,
0,
0,
0,
0,
0,
0,
0,
0,
0,
0,
0,
0,
1,
0,
0,
0,
0,
0,
0,
0,
0,
0,
0,
0,
0,
0,
0,
0,
0,
0,
0,
0,
0,
0,
0,
0,
0,
0,
0,
0,
0,
0,
0,
0,
0,
0,
0,
0,
0,
0,
0,
0,
0,
0,
0,
0,
0,
0,
0,
0,
0,
0,
0,
0,
0,
0,
0,
0,
0,
0,
0,
0,
0,
0,
0,
0,
0,
0,
0,
0,
0,
0,
0,
0,
0,
0,
0,
0,
0,
0,
0,
0,
0,
0,
0,
0,
0,
0,
0,
0,
0,
0,
0,
0,
0,
0,
#ENDOFDATA   :