File: N132962/Quantification/20 keV/MMM2/SPI MM2 Wollastonite[0][4].msa
#FORMAT      : EMSA/MAS Spectral Data File
#VERSION     : 1.0
#TITLE       : SPI MM2 Wollastonite[0][all]
#DATE        : 13-MAR-2025
#TIME        : 13:53
#OWNER       : Unknown
#NPOINTS     : 4096
#NCOLUMNS    : 1
#XUNITS      : eV
#YUNITS      : counts
#DATATYPE    : Y
#XPERCHAN    : 9.99778
#OFFSET      : 1.69135
#BEAMKV      : 20
#SIGNALTYPE  : EDS
#ELEVANGLE   : 35
#AZIMANGLE   : 0
#LIVETIME    : 239.856
#REALTIME    : 256.175
#PROBECUR    : 1.0264
#TAUWIND     : 0
#TDEADLYR    : 0
#TACTLYR     : 0.045
#TALWIND     : 0.025
#CHOFFSET    : 0.0
#XLABEL      : Energy (eV)
#YLABEL      : Counts
#XPOSITION   : 0.00405
#YPOSITION   : 6.24225
#ZPOSITION   : 31.03511
#EDSDET      : SD
##SPECIMEN   : SPI MM2 Wollastonite[0][all]
##DET_HASH   : 12273538-fd48-a23f-0a19-f1e6fa85caef
##CALIB_HASH : 6abaa72c-aa41-8738-0be9-f592914732f3
##WORKING    : 15.0 mm
##DET_NAME   : EDAX All
##DET_MODE   : MediumLE
#SPECTRUM    :
23,
187,
13907,
3097,
24482,
2079,
2701,
3084,
3770,
4362,
4806,
5643,
66269,
31386,
4822,
3095,
3442,
3099,
3076,
2974,
2948,
2866,
2733,
2765,
2592,
3593,
87420,
29395,
5815,
14746,
1877,
1693,
1583,
1545,
1517,
1522,
1458,
1450,
1390,
1710,
1271,
1364,
1309,
1218,
1062,
1129,
1201,
1074,
1005,
994,
997,
963,
909,
1014,
838,
855,
744,
725,
769,
745,
650,
651,
668,
607,
609,
612,
567,
604,
536,
514,
479,
472,
463,
458,
478,
396,
406,
405,
412,
361,
350,
328,
329,
288,
295,
297,
277,
260,
217,
229,
232,
208,
228,
195,
175,
195,
160,
166,
138,
150,
139,
123,
128,
123,
117,
120,
94,
114,
71,
83,
91,
72,
76,
63,
63,
55,
45,
48,
54,
45,
40,
30,
32,
44,
22,
38,
28,
19,
25,
26,
7,
14,
15,
11,
5,
16,
7,
7,
7,
3,
3,
1,
2,
0,
0,
0,
0,
1,
1,
0,
0,
0,
0,
0,
0,
0,
0,
0,
0,
0,
0,
0,
0,
0,
0,
0,
0,
0,
0,
0,
0,
0,
0,
0,
0,
0,
1,
0,
0,
0,
0,
0,
0,
0,
0,
0,
0,
0,
0,
0,
0,
0,
0,
0,
0,
0,
0,
0,
0,
0,
0,
0,
0,
0,
0,
0,
0,
0,
0,
0,
0,
0,
0,
0,
0,
0,
0,
0,
0,
0,
0,
0,
0,
0,
0,
0,
0,
0,
0,
0,
0,
0,
0,
0,
0,
0,
0,
0,
0,
0,
0,
0,
0,
0,
0,
0,
0,
0,
0,
0,
0,
0,
0,
0,
0,
0,
0,
0,
0,
0,
0,
0,
0,
0,
0,
0,
0,
0,
0,
0,
0,
0,
0,
0,
0,
0,
0,
0,
0,
0,
0,
0,
0,
0,
0,
0,
0,
0,
0,
0,
0,
0,
0,
0,
#ENDOFDATA   :