File: N132962/Quantification/20 keV/MMM2/SPI MM2 SPI Obsidian[3][4].msa
#FORMAT      : EMSA/MAS Spectral Data File
#VERSION     : 1.0
#TITLE       : SPI MM2 SPI Obsidian[3][all]
#DATE        : 13-MAR-2025
#TIME        : 09:58
#OWNER       : Unknown
#NPOINTS     : 4096
#NCOLUMNS    : 1
#XUNITS      : eV
#YUNITS      : counts
#DATATYPE    : Y
#XPERCHAN    : 9.99778
#OFFSET      : 1.69135
#BEAMKV      : 20
#SIGNALTYPE  : EDS
#ELEVANGLE   : 35
#AZIMANGLE   : 0
#LIVETIME    : 239.865
#REALTIME    : 256.298
#PROBECUR    : 1.02627
#TAUWIND     : 0
#TDEADLYR    : 0
#TACTLYR     : 0.045
#TALWIND     : 0.025
#CHOFFSET    : 0.0
#XLABEL      : Energy (eV)
#YLABEL      : Counts
#XPOSITION   : 0.00236
#YPOSITION   : -3.00336
#ZPOSITION   : 31.03509
#EDSDET      : SD
##SPECIMEN   : SPI MM2 SPI Obsidian[3][all]
##D2STDCMP   : SPI Obsidian,(O:49.01),(Na:2.77),(Mg:0.06),(Al:6.9),(Si:35.66),(K:3.58),(Ca:0.63),(Ti:0.06),(Mn:0.04),(Fe:0.59),5.0
##DET_HASH   : 12273538-fd48-a23f-0a19-f1e6fa85caef
##CALIB_HASH : 6abaa72c-aa41-8738-0be9-f592914732f3
##WORKING    : 15.0 mm
##DET_NAME   : EDAX All
##DET_MODE   : MediumLE
#SPECTRUM    :
23,
178,
8733,
5570,
57755,
2639,
2687,
6436,
4272,
4646,
8179,
24723,
88852,
40582,
2246,
2244,
3059,
2212,
2239,
2318,
2253,
2149,
2073,
4163,
12085,
2787,
4286,
2191,
1763,
1852,
1510,
1533,
1808,
1441,
1369,
1406,
1304,
1309,
1172,
1223,
1091,
1133,
1121,
993,
919,
1280,
1799,
885,
847,
821,
926,
827,
772,
692,
692,
647,
673,
616,
565,
605,
525,
539,
506,
465,
470,
449,
436,
466,
481,
390,
395,
381,
352,
392,
301,
326,
341,
305,
297,
299,
313,
283,
248,
231,
226,
232,
190,
193,
194,
182,
160,
203,
160,
153,
142,
122,
144,
122,
126,
134,
101,
91,
102,
87,
81,
98,
73,
78,
68,
66,
52,
63,
47,
54,
58,
36,
41,
31,
40,
40,
26,
26,
24,
24,
24,
21,
19,
19,
16,
12,
16,
12,
11,
8,
8,
4,
8,
5,
5,
2,
4,
0,
0,
0,
0,
1,
1,
0,
0,
0,
0,
1,
0,
0,
0,
0,
0,
0,
1,
0,
0,
0,
0,
0,
0,
0,
0,
0,
0,
0,
0,
0,
0,
0,
0,
0,
0,
0,
0,
0,
0,
0,
0,
0,
0,
0,
0,
0,
0,
0,
0,
0,
0,
0,
0,
0,
0,
0,
0,
0,
0,
0,
0,
0,
0,
0,
0,
0,
0,
0,
0,
0,
0,
0,
0,
0,
0,
0,
0,
0,
0,
0,
0,
0,
0,
0,
0,
0,
0,
0,
0,
0,
0,
0,
0,
0,
0,
0,
0,
0,
0,
0,
0,
0,
0,
0,
0,
0,
0,
0,
0,
0,
0,
0,
0,
0,
0,
0,
0,
0,
0,
0,
0,
0,
0,
0,
0,
0,
0,
0,
0,
0,
0,
0,
0,
0,
0,
0,
0,
0,
0,
0,
0,
0,
0,
0,
0,
0,
0,
0,
0,
0,
0,
0,
#ENDOFDATA   :