File: N132962/Quantification/20 keV/MMM2/SPI MM2 SPI Monazite[0][4].msa
#FORMAT      : EMSA/MAS Spectral Data File
#VERSION     : 1.0
#TITLE       : SPI MM2 SPI Monazite[0][all]
#DATE        : 13-MAR-2025
#TIME        : 10:04
#OWNER       : Unknown
#NPOINTS     : 4096
#NCOLUMNS    : 1
#XUNITS      : eV
#YUNITS      : counts
#DATATYPE    : Y
#XPERCHAN    : 9.99778
#OFFSET      : 1.69135
#BEAMKV      : 20
#SIGNALTYPE  : EDS
#ELEVANGLE   : 35
#AZIMANGLE   : 0
#LIVETIME    : 239.961
#REALTIME    : 258.542
#PROBECUR    : 1.02627
#TAUWIND     : 0
#TDEADLYR    : 0
#TACTLYR     : 0.045
#TALWIND     : 0.025
#CHOFFSET    : 0.0
#XLABEL      : Energy (eV)
#YLABEL      : Counts
#XPOSITION   : 2.41417
#YPOSITION   : -2.72714
#ZPOSITION   : 31.03509
#EDSDET      : SD
##SPECIMEN   : SPI MM2 SPI Monazite[0][all]
##D2STDCMP   : SPI Monazite,(O:26.45),(Si:0.83),(P:11.85),(Ca:0.65),(Y:1.59),(La:7.84),(Ce:19.96),(Pr:2.47),(Nd:9.68),(Sm:3.7),(Eu:0.38),(Gd:2.89),(Tb:0.35),(Dy:1.21),(Pb:0.25),(Th:9.7),(U:0.16),5.0
##DET_HASH   : 12273538-fd48-a23f-0a19-f1e6fa85caef
##CALIB_HASH : 6abaa72c-aa41-8738-0be9-f592914732f3
##WORKING    : 15.0 mm
##DET_NAME   : EDAX All
##DET_MODE   : MediumLE
#SPECTRUM    :
32,
447,
17286,
8129,
40906,
9240,
10734,
9288,
7539,
6578,
5812,
5609,
7631,
7323,
36605,
12950,
5225,
6065,
5180,
5206,
5155,
11618,
11063,
7795,
6096,
4775,
5968,
4959,
4500,
4751,
4469,
4675,
4356,
13020,
13578,
17198,
12084,
15380,
15637,
6177,
10997,
9403,
4394,
7001,
5370,
4366,
3524,
4006,
3405,
2733,
2632,
2697,
2462,
2455,
2225,
2145,
2047,
1908,
1937,
1929,
1772,
1783,
1642,
1635,
1594,
1590,
1509,
1466,
1416,
1457,
1349,
1387,
1274,
1267,
1202,
1189,
1152,
1085,
1089,
1084,
1019,
987,
963,
922,
890,
875,
800,
812,
740,
726,
742,
729,
815,
800,
604,
552,
527,
525,
522,
527,
475,
437,
408,
432,
409,
370,
392,
359,
335,
283,
308,
285,
294,
246,
249,
213,
209,
149,
183,
150,
159,
160,
115,
140,
113,
120,
107,
88,
89,
88,
63,
65,
70,
55,
45,
25,
34,
29,
17,
16,
12,
7,
8,
4,
1,
4,
1,
0,
4,
1,
1,
1,
0,
0,
3,
2,
1,
0,
0,
1,
0,
0,
1,
0,
2,
0,
1,
1,
0,
0,
0,
0,
1,
0,
1,
0,
2,
0,
0,
0,
1,
0,
0,
0,
0,
1,
0,
0,
0,
0,
0,
0,
1,
0,
0,
0,
0,
0,
0,
1,
0,
0,
1,
0,
0,
1,
0,
0,
0,
0,
0,
0,
0,
1,
0,
0,
0,
0,
0,
0,
0,
0,
0,
0,
0,
0,
0,
0,
0,
0,
0,
0,
0,
0,
0,
0,
0,
0,
0,
0,
0,
0,
0,
0,
0,
0,
0,
0,
0,
0,
0,
0,
0,
0,
0,
0,
0,
0,
0,
0,
0,
0,
0,
0,
0,
0,
0,
0,
0,
0,
0,
0,
0,
0,
0,
0,
0,
0,
0,
0,
0,
0,
0,
0,
0,
0,
0,
0,
0,
0,
0,
0,
0,
0,
#ENDOFDATA   :