File: N132962/Quantification/20 keV/MMM2/SPI MM2 SPI Mangotantalite[4][4].msa
#FORMAT      : EMSA/MAS Spectral Data File
#VERSION     : 1.0
#TITLE       : SPI MM2 SPI Mangotantalite[4][all]
#DATE        : 13-MAR-2025
#TIME        : 09:41
#OWNER       : Unknown
#NPOINTS     : 4096
#NCOLUMNS    : 1
#XUNITS      : eV
#YUNITS      : counts
#DATATYPE    : Y
#XPERCHAN    : 9.99778
#OFFSET      : 1.69135
#BEAMKV      : 20
#SIGNALTYPE  : EDS
#ELEVANGLE   : 35
#AZIMANGLE   : 0
#LIVETIME    : 239.804
#REALTIME    : 261.7453
#PROBECUR    : 1.02582
#TAUWIND     : 0
#TDEADLYR    : 0
#TACTLYR     : 0.045
#TALWIND     : 0.025
#CHOFFSET    : 0.0
#XLABEL      : Energy (eV)
#YLABEL      : Counts
#XPOSITION   : -1.63124
#YPOSITION   : -4.5713
#ZPOSITION   : 31.03509
#EDSDET      : SD
##SPECIMEN   : SPI MM2 SPI Mangotantalite[4][all]
##DET_HASH   : 12273538-fd48-a23f-0a19-f1e6fa85caef
##CALIB_HASH : 6abaa72c-aa41-8738-0be9-f592914732f3
##WORKING    : 15.0 mm
##DET_NAME   : EDAX All
##DET_MODE   : MediumLE
#SPECTRUM    :
20,
689,
14575,
6041,
24989,
7904,
5754,
6483,
7229,
10142,
10957,
9943,
134219,
29236,
10040,
13151,
20813,
6626,
4650,
4879,
4573,
4642,
4796,
4846,
4970,
4956,
4660,
4654,
4632,
4600,
4545,
4535,
5279,
4369,
4297,
4349,
4093,
3942,
3900,
3784,
3731,
4243,
27894,
5637,
3467,
4592,
9332,
4010,
3016,
2951,
3254,
4057,
3068,
2871,
2703,
2610,
2620,
4166,
25400,
6814,
2610,
2288,
2111,
2071,
2031,
2278,
6036,
9367,
4001,
5897,
2222,
1788,
1522,
1458,
1480,
1426,
1477,
1812,
2722,
1427,
1705,
1347,
1153,
1146,
1080,
993,
979,
867,
897,
890,
851,
763,
810,
762,
746,
682,
715,
614,
671,
571,
593,
576,
521,
509,
495,
473,
465,
430,
374,
380,
356,
332,
312,
302,
299,
294,
247,
221,
227,
247,
204,
186,
176,
160,
159,
163,
140,
136,
117,
120,
81,
83,
85,
82,
59,
70,
58,
46,
30,
19,
25,
10,
10,
5,
1,
7,
7,
5,
1,
2,
1,
2,
0,
1,
3,
0,
2,
3,
1,
0,
1,
1,
1,
3,
3,
1,
2,
0,
0,
3,
2,
2,
3,
1,
0,
3,
1,
2,
0,
0,
1,
0,
1,
1,
0,
1,
0,
1,
0,
0,
1,
0,
0,
0,
1,
0,
0,
0,
0,
0,
0,
0,
0,
1,
0,
0,
0,
0,
0,
0,
1,
0,
0,
0,
0,
0,
0,
0,
0,
0,
0,
0,
0,
0,
0,
0,
0,
0,
0,
0,
0,
0,
0,
0,
0,
0,
0,
0,
0,
0,
0,
0,
0,
0,
0,
0,
0,
0,
0,
0,
0,
0,
0,
0,
0,
0,
0,
0,
0,
0,
0,
0,
0,
0,
0,
0,
0,
0,
0,
0,
0,
0,
0,
0,
0,
0,
0,
0,
0,
0,
0,
0,
0,
0,
0,
0,
0,
0,
0,
0,
0,
0,
0,
0,
#ENDOFDATA   :