File: N132962/Quantification/20 keV/MMM2/SPI MM2 Pyrope[0][4].msa
#FORMAT      : EMSA/MAS Spectral Data File
#VERSION     : 1.0
#TITLE       : SPI MM2 Pyrope[0][all]
#DATE        : 13-MAR-2025
#TIME        : 12:39
#OWNER       : Unknown
#NPOINTS     : 4096
#NCOLUMNS    : 1
#XUNITS      : eV
#YUNITS      : counts
#DATATYPE    : Y
#XPERCHAN    : 9.99778
#OFFSET      : 1.69135
#BEAMKV      : 20
#SIGNALTYPE  : EDS
#ELEVANGLE   : 35
#AZIMANGLE   : 0
#LIVETIME    : 239.853
#REALTIME    : 255.089
#PROBECUR    : 1.02627
#TAUWIND     : 0
#TDEADLYR    : 0
#TACTLYR     : 0.045
#TALWIND     : 0.025
#CHOFFSET    : 0.0
#XLABEL      : Energy (eV)
#YLABEL      : Counts
#XPOSITION   : 4.61007
#YPOSITION   : 1.53359
#ZPOSITION   : 31.03511
#EDSDET      : SD
##SPECIMEN   : SPI MM2 Pyrope[0][all]
##D2STDCMP   : Pyrope,(O:47.6258),(Mg:18.0873),(Al:13.3861),(Si:20.9007),5.0
##DET_HASH   : 12273538-fd48-a23f-0a19-f1e6fa85caef
##CALIB_HASH : 6abaa72c-aa41-8738-0be9-f592914732f3
##WORKING    : 15.0 mm
##DET_NAME   : EDAX All
##DET_MODE   : MediumLE
#SPECTRUM    :
19,
167,
9339,
5949,
58857,
7205,
2620,
3247,
4304,
94763,
8443,
30649,
40997,
19952,
2546,
2416,
2729,
2519,
2431,
2393,
2498,
2344,
2294,
2335,
2130,
2161,
9292,
4297,
2105,
2972,
1710,
1653,
2386,
1642,
1560,
1555,
1468,
1343,
1828,
2547,
1221,
1186,
1785,
1197,
1025,
3886,
10332,
1112,
910,
942,
1981,
1389,
785,
764,
726,
704,
695,
661,
674,
651,
592,
621,
581,
531,
509,
544,
477,
450,
455,
443,
409,
394,
392,
360,
361,
354,
378,
328,
339,
315,
292,
304,
255,
282,
235,
233,
219,
204,
202,
178,
225,
195,
169,
160,
149,
149,
131,
140,
146,
131,
128,
108,
94,
94,
100,
86,
92,
75,
65,
66,
63,
56,
74,
49,
45,
47,
51,
44,
46,
32,
32,
31,
30,
29,
28,
25,
21,
20,
17,
10,
9,
14,
8,
20,
6,
6,
7,
4,
9,
2,
0,
1,
0,
1,
1,
0,
0,
0,
0,
0,
0,
0,
0,
0,
1,
0,
0,
0,
1,
0,
0,
0,
0,
0,
0,
0,
0,
1,
0,
0,
0,
0,
0,
0,
0,
0,
0,
0,
0,
0,
0,
0,
0,
0,
0,
0,
0,
0,
0,
0,
0,
0,
0,
0,
0,
0,
0,
0,
0,
0,
0,
0,
0,
0,
0,
0,
0,
0,
0,
0,
0,
0,
0,
0,
0,
0,
0,
0,
0,
0,
0,
0,
0,
0,
0,
0,
0,
0,
0,
0,
0,
0,
0,
0,
0,
0,
0,
0,
0,
0,
0,
0,
0,
0,
0,
0,
0,
0,
0,
0,
0,
0,
0,
0,
0,
0,
0,
0,
0,
0,
0,
0,
0,
0,
0,
0,
0,
0,
0,
0,
0,
0,
0,
0,
0,
0,
0,
0,
0,
0,
0,
0,
0,
0,
0,
0,
0,
0,
0,
0,
0,
0,
0,
0,
#ENDOFDATA   :