File: N132962/Quantification/20 keV/MMM2/SPI MM2 SPI Magnetite[5][4].msa
#FORMAT      : EMSA/MAS Spectral Data File
#VERSION     : 1.0
#TITLE       : SPI MM2 SPI Magnetite[5][all]
#DATE        : 13-MAR-2025
#TIME        : 09:23
#OWNER       : Unknown
#NPOINTS     : 4096
#NCOLUMNS    : 1
#XUNITS      : eV
#YUNITS      : counts
#DATATYPE    : Y
#XPERCHAN    : 9.99778
#OFFSET      : 1.69135
#BEAMKV      : 20
#SIGNALTYPE  : EDS
#ELEVANGLE   : 35
#AZIMANGLE   : 0
#LIVETIME    : 239.801
#REALTIME    : 256.752
#PROBECUR    : 1.02582
#TAUWIND     : 0
#TDEADLYR    : 0
#TACTLYR     : 0.045
#TALWIND     : 0.025
#CHOFFSET    : 0.0
#XLABEL      : Energy (eV)
#YLABEL      : Counts
#XPOSITION   : 3.90618
#YPOSITION   : -4.16192
#ZPOSITION   : 31.03509
#EDSDET      : SD
##SPECIMEN   : SPI MM2 SPI Magnetite[5][all]
##D2STDCMP   : SPI Magnetite,(O:27.53),(Si:0.01),(Mn:0.18),(Fe:71.88)
##DET_HASH   : 12273538-fd48-a23f-0a19-f1e6fa85caef
##CALIB_HASH : 6abaa72c-aa41-8738-0be9-f592914732f3
##WORKING    : 15.0 mm
##DET_NAME   : EDAX All
##DET_MODE   : MediumLE
#SPECTRUM    :
21,
281,
12203,
9492,
66335,
51623,
2339,
2339,
2823,
3397,
3810,
4309,
4685,
4759,
4338,
4394,
4552,
4416,
4400,
4240,
4174,
4030,
3879,
3795,
3714,
3556,
3516,
3343,
3185,
3115,
3092,
2949,
3109,
3308,
2709,
2632,
2474,
2529,
2403,
2351,
2246,
2163,
2743,
2171,
2348,
36286,
109603,
2909,
1832,
2399,
14213,
7873,
1254,
1255,
1286,
1185,
1135,
1133,
1070,
1057,
1044,
1107,
999,
954,
964,
865,
874,
883,
847,
808,
833,
776,
743,
769,
721,
701,
686,
615,
595,
585,
586,
583,
547,
502,
522,
492,
496,
409,
432,
407,
404,
473,
440,
361,
281,
293,
313,
314,
259,
254,
230,
238,
222,
216,
181,
206,
179,
162,
182,
144,
133,
122,
149,
140,
126,
95,
120,
96,
92,
87,
81,
52,
63,
64,
49,
52,
49,
42,
39,
36,
39,
29,
26,
28,
24,
21,
13,
18,
9,
9,
10,
8,
2,
1,
0,
0,
1,
0,
1,
1,
0,
0,
0,
1,
1,
0,
0,
0,
1,
3,
1,
1,
0,
0,
0,
0,
1,
0,
0,
0,
0,
0,
0,
0,
1,
0,
0,
0,
0,
0,
0,
1,
0,
2,
0,
0,
0,
0,
0,
0,
0,
0,
0,
0,
0,
1,
1,
0,
0,
0,
0,
0,
0,
0,
0,
0,
0,
0,
0,
0,
0,
0,
0,
0,
0,
0,
0,
0,
0,
0,
0,
0,
0,
0,
0,
0,
0,
0,
0,
0,
0,
0,
0,
0,
0,
0,
0,
0,
0,
0,
0,
0,
0,
0,
0,
0,
0,
0,
0,
0,
0,
0,
0,
0,
0,
0,
0,
0,
0,
0,
0,
0,
0,
0,
0,
0,
0,
0,
0,
0,
0,
0,
0,
0,
0,
0,
0,
0,
0,
0,
0,
0,
0,
0,
0,
0,
0,
0,
0,
0,
0,
0,
0,
0,
#ENDOFDATA   :