File: N132962/Quantification/20 keV/MMM2/SPI MM2 SPI Orthoclaise[2][4].msa
#FORMAT      : EMSA/MAS Spectral Data File
#VERSION     : 1.0
#TITLE       : SPI MM2 SPI Orthoclaise[2][all]
#DATE        : 13-MAR-2025
#TIME        : 10:25
#OWNER       : Unknown
#NPOINTS     : 4096
#NCOLUMNS    : 1
#XUNITS      : eV
#YUNITS      : counts
#DATATYPE    : Y
#XPERCHAN    : 9.99778
#OFFSET      : 1.69135
#BEAMKV      : 20
#SIGNALTYPE  : EDS
#ELEVANGLE   : 35
#AZIMANGLE   : 0
#LIVETIME    : 239.887
#REALTIME    : 255.911
#PROBECUR    : 1.02606
#TAUWIND     : 0
#TDEADLYR    : 0
#TACTLYR     : 0.045
#TALWIND     : 0.025
#CHOFFSET    : 0.0
#XLABEL      : Energy (eV)
#YLABEL      : Counts
#XPOSITION   : 6.18937
#YPOSITION   : 0.18938
#ZPOSITION   : 31.0351
#EDSDET      : SD
##SPECIMEN   : SPI MM2 SPI Orthoclaise[2][all]
##D2STDCMP   : SPI Orthoclaise,(O:45.86),(Na:0.67),(Al:8.85),(Si:30.29),(K:12.85),(Fe:1.4),(Ba:0.04),5.0
##DET_HASH   : 12273538-fd48-a23f-0a19-f1e6fa85caef
##CALIB_HASH : 6abaa72c-aa41-8738-0be9-f592914732f3
##WORKING    : 15.0 mm
##DET_NAME   : EDAX All
##DET_MODE   : MediumLE
#SPECTRUM    :
26,
193,
9695,
4387,
41918,
3734,
2648,
3395,
3796,
4437,
9137,
30191,
73361,
34240,
2456,
2467,
2923,
2481,
2551,
2498,
2416,
2437,
2297,
9865,
41082,
3872,
6333,
1825,
1734,
1656,
1612,
1570,
1592,
1607,
1502,
1422,
1509,
1275,
1312,
1272,
1211,
1149,
1156,
1076,
1054,
1865,
3704,
931,
912,
921,
1137,
947,
756,
768,
762,
721,
698,
682,
647,
640,
623,
561,
600,
533,
509,
504,
515,
529,
470,
417,
429,
427,
420,
405,
378,
352,
321,
351,
298,
303,
298,
309,
272,
279,
252,
234,
227,
232,
211,
200,
172,
190,
174,
154,
164,
153,
146,
154,
144,
103,
138,
122,
117,
96,
105,
93,
87,
89,
91,
65,
67,
52,
54,
56,
54,
52,
43,
45,
28,
37,
37,
22,
29,
21,
16,
14,
26,
13,
19,
21,
8,
11,
9,
6,
18,
7,
6,
5,
0,
1,
2,
2,
1,
0,
0,
0,
0,
0,
0,
1,
0,
0,
1,
0,
0,
0,
0,
0,
0,
0,
0,
0,
0,
0,
0,
0,
0,
0,
0,
0,
0,
0,
0,
0,
0,
0,
0,
0,
0,
0,
0,
0,
0,
0,
0,
0,
0,
0,
0,
0,
0,
0,
0,
0,
0,
0,
0,
0,
0,
0,
0,
0,
0,
0,
0,
0,
0,
0,
0,
0,
0,
0,
0,
0,
0,
0,
0,
0,
0,
0,
0,
0,
0,
0,
0,
0,
0,
0,
0,
0,
0,
0,
0,
0,
0,
0,
0,
0,
0,
0,
0,
0,
0,
0,
0,
0,
0,
0,
0,
0,
0,
0,
0,
0,
0,
0,
0,
0,
0,
0,
0,
0,
0,
0,
0,
0,
0,
0,
0,
0,
0,
0,
0,
0,
0,
0,
0,
0,
0,
0,
0,
0,
0,
0,
0,
0,
0,
0,
0,
0,
0,
0,
0,
0,
#ENDOFDATA   :