File: N132962/Quantification/20 keV/MMM2/SPI MM2 SPI Pentlandite[5][4].msa
#FORMAT      : EMSA/MAS Spectral Data File
#VERSION     : 1.0
#TITLE       : SPI MM2 SPI Pentlandite[5][all]
#DATE        : 13-MAR-2025
#TIME        : 10:37
#OWNER       : Unknown
#NPOINTS     : 4096
#NCOLUMNS    : 1
#XUNITS      : eV
#YUNITS      : counts
#DATATYPE    : Y
#XPERCHAN    : 9.99778
#OFFSET      : 1.69135
#BEAMKV      : 20
#SIGNALTYPE  : EDS
#ELEVANGLE   : 35
#AZIMANGLE   : 0
#LIVETIME    : 239.963
#REALTIME    : 260.265
#PROBECUR    : 1.02606
#TAUWIND     : 0
#TDEADLYR    : 0
#TACTLYR     : 0.045
#TALWIND     : 0.025
#CHOFFSET    : 0.0
#XLABEL      : Energy (eV)
#YLABEL      : Counts
#XPOSITION   : 3.94259
#YPOSITION   : -0.30857
#ZPOSITION   : 31.0351
#EDSDET      : SD
##SPECIMEN   : SPI MM2 SPI Pentlandite[5][all]
##D2STDCMP   : SPI Pentlandite,(S:32.89),(Fe:30.88),(Co:0.43),(Ni:35.61)
##DET_HASH   : 12273538-fd48-a23f-0a19-f1e6fa85caef
##CALIB_HASH : 6abaa72c-aa41-8738-0be9-f592914732f3
##WORKING    : 15.0 mm
##DET_NAME   : EDAX All
##DET_MODE   : MediumLE
#SPECTRUM    :
32,
469,
11756,
3245,
13343,
50063,
63151,
3422,
3490,
4142,
4740,
5118,
5624,
5882,
5411,
5682,
62576,
49226,
10571,
3830,
3802,
3852,
3848,
3633,
3664,
3542,
3472,
3468,
3363,
3299,
3223,
3114,
2959,
3390,
2942,
2756,
2719,
2623,
2718,
2554,
2532,
2459,
2252,
2230,
2342,
17323,
50334,
2455,
1998,
2545,
7884,
4650,
2204,
35073,
17521,
1650,
1493,
1465,
2056,
7535,
1825,
1145,
1250,
1134,
1089,
1090,
1020,
991,
953,
966,
1069,
934,
821,
856,
800,
835,
778,
743,
767,
697,
636,
691,
612,
651,
542,
530,
543,
499,
522,
498,
425,
472,
412,
433,
371,
367,
366,
359,
287,
312,
258,
280,
279,
239,
244,
211,
216,
209,
199,
188,
174,
144,
158,
140,
135,
135,
132,
106,
117,
105,
97,
87,
91,
84,
65,
76,
45,
66,
44,
38,
48,
42,
38,
35,
22,
20,
22,
17,
17,
17,
5,
5,
3,
0,
0,
1,
2,
0,
1,
2,
1,
0,
0,
0,
0,
0,
1,
0,
0,
1,
0,
0,
1,
1,
1,
0,
0,
0,
0,
1,
0,
0,
0,
0,
0,
0,
0,
0,
1,
0,
0,
0,
0,
0,
0,
0,
0,
0,
0,
0,
0,
0,
0,
0,
0,
0,
0,
0,
0,
0,
0,
0,
0,
0,
0,
0,
0,
0,
0,
0,
0,
0,
0,
1,
0,
0,
0,
0,
0,
0,
0,
0,
0,
0,
0,
0,
0,
0,
0,
0,
0,
0,
0,
0,
0,
0,
0,
0,
0,
0,
0,
0,
0,
0,
0,
0,
0,
0,
0,
0,
0,
0,
0,
0,
0,
0,
0,
0,
0,
0,
0,
0,
0,
0,
0,
0,
0,
0,
0,
0,
0,
0,
0,
0,
0,
0,
0,
0,
0,
0,
0,
0,
0,
0,
0,
0,
0,
0,
0,
0,
0,
0,
0,
0,
#ENDOFDATA   :