File: N132962/Quantification/20 keV/MMM2/SPI MM2 Stibnite[4][4].msa
#FORMAT      : EMSA/MAS Spectral Data File
#VERSION     : 1.0
#TITLE       : SPI MM2 Stibnite[4][all]
#DATE        : 13-MAR-2025
#TIME        : 13:21
#OWNER       : Unknown
#NPOINTS     : 4096
#NCOLUMNS    : 1
#XUNITS      : eV
#YUNITS      : counts
#DATATYPE    : Y
#XPERCHAN    : 9.99778
#OFFSET      : 1.69135
#BEAMKV      : 20
#SIGNALTYPE  : EDS
#ELEVANGLE   : 35
#AZIMANGLE   : 0
#LIVETIME    : 239.8101
#REALTIME    : 263.258
#PROBECUR    : 1.0263
#TAUWIND     : 0
#TDEADLYR    : 0
#TACTLYR     : 0.045
#TALWIND     : 0.025
#CHOFFSET    : 0.0
#XLABEL      : Energy (eV)
#YLABEL      : Counts
#XPOSITION   : 1.563
#YPOSITION   : 4.29398
#ZPOSITION   : 31.03511
#EDSDET      : SD
##SPECIMEN   : SPI MM2 Stibnite[4][all]
##DET_HASH   : 12273538-fd48-a23f-0a19-f1e6fa85caef
##CALIB_HASH : 6abaa72c-aa41-8738-0be9-f592914732f3
##WORKING    : 15.0 mm
##DET_NAME   : EDAX All
##DET_MODE   : MediumLE
#SPECTRUM    :
21,
1939,
15010,
16957,
9525,
5443,
4689,
4689,
5295,
5941,
6752,
7352,
7710,
8922,
7659,
8542,
60442,
47903,
11972,
5554,
5467,
5589,
5824,
9345,
5939,
17295,
104764,
27732,
39399,
17562,
7249,
10297,
4103,
6489,
3394,
3054,
3161,
3259,
3177,
3024,
2965,
2971,
3162,
3011,
3088,
2951,
3222,
2663,
2603,
2624,
2562,
2441,
2475,
2581,
2380,
2241,
2163,
2152,
2043,
2085,
2030,
1918,
1863,
1894,
1758,
1763,
1674,
1664,
1622,
1603,
1483,
1590,
1429,
1403,
1355,
1358,
1353,
1246,
1215,
1199,
1131,
1101,
1059,
1010,
888,
938,
916,
898,
784,
795,
767,
723,
737,
668,
673,
616,
630,
630,
547,
568,
526,
467,
462,
458,
407,
411,
402,
396,
367,
323,
308,
307,
276,
255,
241,
214,
220,
205,
192,
173,
172,
162,
161,
134,
141,
127,
120,
75,
98,
88,
74,
72,
79,
65,
59,
56,
31,
38,
25,
21,
13,
11,
10,
4,
5,
1,
2,
1,
2,
4,
2,
0,
3,
0,
0,
1,
0,
2,
1,
1,
2,
0,
2,
0,
0,
0,
2,
1,
2,
0,
0,
0,
0,
0,
0,
1,
0,
0,
0,
0,
0,
0,
0,
0,
0,
0,
0,
0,
0,
0,
0,
0,
0,
0,
0,
0,
0,
1,
0,
0,
0,
0,
0,
1,
0,
0,
0,
0,
0,
0,
1,
0,
0,
1,
0,
0,
0,
0,
0,
0,
0,
0,
0,
0,
0,
0,
0,
0,
0,
0,
0,
0,
0,
0,
0,
0,
0,
0,
0,
0,
0,
0,
0,
0,
0,
0,
0,
0,
0,
0,
0,
0,
0,
0,
0,
0,
0,
0,
0,
0,
0,
0,
0,
0,
0,
0,
0,
0,
0,
0,
0,
0,
0,
0,
0,
0,
0,
0,
0,
0,
0,
0,
0,
0,
0,
0,
0,
0,
0,
0,
0,
0,
0,
0,
#ENDOFDATA   :