File: N132962/Quantification/20 keV/MMM2/SPI MM2 SPI Olivine[5][4].msa
#FORMAT      : EMSA/MAS Spectral Data File
#VERSION     : 1.0
#TITLE       : SPI MM2 SPI Olivine[5][all]
#DATE        : 13-MAR-2025
#TIME        : 09:51
#OWNER       : Unknown
#NPOINTS     : 4096
#NCOLUMNS    : 1
#XUNITS      : eV
#YUNITS      : counts
#DATATYPE    : Y
#XPERCHAN    : 9.99778
#OFFSET      : 1.69135
#BEAMKV      : 20
#SIGNALTYPE  : EDS
#ELEVANGLE   : 35
#AZIMANGLE   : 0
#LIVETIME    : 239.493
#REALTIME    : 255.531
#PROBECUR    : 1.02627
#TAUWIND     : 0
#TDEADLYR    : 0
#TACTLYR     : 0.045
#TALWIND     : 0.025
#CHOFFSET    : 0.0
#XLABEL      : Energy (eV)
#YLABEL      : Counts
#XPOSITION   : -3.22091
#YPOSITION   : -2.12755
#ZPOSITION   : 31.03509
#EDSDET      : SD
##SPECIMEN   : SPI MM2 SPI Olivine[5][all]
##D2STDCMP   : SPI Olivine,(O:43.96),(Mg:30.26),(Si:19.14),(Mn:0.089),(Fe:6.35),(Ni:0.278),5.0
##DET_HASH   : 12273538-fd48-a23f-0a19-f1e6fa85caef
##CALIB_HASH : 6abaa72c-aa41-8738-0be9-f592914732f3
##WORKING    : 15.0 mm
##DET_NAME   : EDAX All
##DET_MODE   : MediumLE
#SPECTRUM    :
32,
171,
8523,
6407,
67248,
7294,
3296,
3448,
5784,
238984,
2809,
3198,
39153,
19157,
2255,
2215,
2663,
2354,
2647,
2279,
2226,
2312,
2140,
2135,
2087,
2065,
1847,
1839,
1815,
1709,
1636,
1611,
1542,
1516,
1411,
1353,
1320,
1308,
1232,
1290,
1164,
1172,
1249,
1039,
1076,
3581,
9398,
1029,
850,
980,
1805,
1288,
770,
974,
863,
707,
662,
650,
591,
640,
580,
574,
565,
557,
527,
482,
488,
441,
424,
401,
394,
368,
384,
372,
337,
346,
327,
337,
321,
289,
267,
260,
258,
250,
227,
199,
223,
201,
209,
194,
177,
178,
198,
144,
160,
142,
123,
121,
135,
134,
124,
86,
100,
103,
100,
92,
66,
76,
70,
76,
66,
49,
61,
47,
54,
37,
43,
41,
34,
35,
29,
24,
38,
34,
23,
11,
18,
20,
15,
17,
13,
11,
10,
5,
7,
8,
2,
4,
4,
4,
3,
4,
1,
0,
0,
0,
0,
0,
0,
0,
0,
0,
0,
0,
0,
0,
0,
0,
0,
0,
0,
0,
0,
1,
0,
1,
0,
0,
0,
0,
0,
0,
0,
0,
0,
0,
0,
0,
0,
0,
0,
0,
0,
0,
0,
0,
0,
0,
0,
0,
0,
0,
0,
0,
0,
0,
0,
0,
0,
0,
0,
0,
0,
0,
0,
0,
0,
0,
0,
0,
0,
0,
0,
0,
0,
0,
0,
0,
0,
0,
0,
0,
0,
0,
0,
0,
0,
0,
0,
0,
0,
0,
0,
0,
0,
0,
0,
0,
0,
0,
0,
0,
0,
0,
0,
0,
0,
0,
0,
0,
0,
0,
0,
0,
0,
0,
0,
0,
0,
0,
0,
0,
0,
0,
0,
0,
0,
0,
0,
0,
0,
0,
0,
0,
0,
0,
0,
0,
0,
0,
0,
0,
0,
0,
0,
0,
0,
0,
0,
0,
0,
0,
0,
0,
#ENDOFDATA   :