File: N132962/Quantification/20 keV/MMM2/SPI MM2 SPI Phlogpite[1][4].msa
#FORMAT      : EMSA/MAS Spectral Data File
#VERSION     : 1.0
#TITLE       : SPI MM2 SPI Phlogpite[1][all]
#DATE        : 13-MAR-2025
#TIME        : 10:42
#OWNER       : Unknown
#NPOINTS     : 4096
#NCOLUMNS    : 1
#XUNITS      : eV
#YUNITS      : counts
#DATATYPE    : Y
#XPERCHAN    : 9.99778
#OFFSET      : 1.69135
#BEAMKV      : 20
#SIGNALTYPE  : EDS
#ELEVANGLE   : 35
#AZIMANGLE   : 0
#LIVETIME    : 239.785
#REALTIME    : 254.637
#PROBECUR    : 1.02606
#TAUWIND     : 0
#TDEADLYR    : 0
#TACTLYR     : 0.045
#TALWIND     : 0.025
#CHOFFSET    : 0.0
#XLABEL      : Energy (eV)
#YLABEL      : Counts
#XPOSITION   : 1.49522
#YPOSITION   : -0.38196
#ZPOSITION   : 31.0351
#EDSDET      : SD
##SPECIMEN   : SPI MM2 SPI Phlogpite[1][all]
##D2STDCMP   : SPI Phlogpite,(H:0.48),(O:46.01),(Mg:17.47),(Al:6.47),(Si:20.19),(K:9.37)
##DET_HASH   : 12273538-fd48-a23f-0a19-f1e6fa85caef
##CALIB_HASH : 6abaa72c-aa41-8738-0be9-f592914732f3
##WORKING    : 15.0 mm
##DET_NAME   : EDAX All
##DET_MODE   : MediumLE
#SPECTRUM    :
25,
204,
9943,
5192,
51186,
7302,
2798,
3977,
4780,
108639,
6291,
19320,
40235,
19853,
2430,
2444,
2755,
2552,
2557,
2437,
2403,
2364,
2273,
6565,
24720,
2921,
4460,
1842,
1784,
1764,
1670,
1607,
2610,
1546,
1590,
1681,
1453,
1431,
1207,
1263,
1171,
1164,
1365,
1009,
1017,
3172,
7881,
965,
902,
919,
1578,
1162,
750,
878,
794,
696,
665,
689,
640,
594,
617,
593,
572,
492,
525,
519,
473,
459,
442,
463,
421,
411,
398,
364,
354,
304,
356,
322,
324,
323,
279,
287,
249,
232,
258,
202,
225,
198,
213,
217,
195,
174,
181,
183,
158,
145,
135,
113,
133,
103,
120,
108,
76,
115,
107,
76,
97,
79,
69,
79,
55,
62,
59,
46,
47,
45,
48,
46,
34,
38,
29,
22,
35,
18,
21,
36,
24,
19,
15,
12,
12,
11,
13,
9,
3,
5,
10,
7,
5,
2,
2,
1,
0,
0,
1,
0,
1,
0,
0,
0,
0,
0,
0,
0,
0,
0,
0,
0,
0,
0,
0,
0,
0,
0,
0,
0,
0,
0,
0,
0,
0,
0,
0,
0,
0,
0,
0,
0,
0,
0,
0,
0,
0,
0,
0,
0,
0,
0,
0,
0,
0,
0,
0,
0,
0,
0,
0,
0,
0,
0,
0,
0,
0,
0,
0,
0,
0,
0,
0,
0,
0,
0,
0,
0,
0,
0,
0,
0,
0,
0,
0,
0,
0,
0,
0,
0,
0,
0,
0,
0,
0,
0,
0,
0,
0,
0,
0,
0,
0,
0,
0,
0,
0,
0,
0,
0,
0,
0,
0,
0,
0,
0,
0,
0,
0,
0,
0,
0,
0,
0,
0,
0,
0,
0,
0,
0,
0,
0,
0,
0,
0,
0,
0,
0,
0,
0,
0,
0,
0,
0,
0,
0,
0,
0,
0,
0,
0,
0,
0,
0,
0,
0,
0,
0,
#ENDOFDATA   :