File: N132962/Quantification/20 keV/MMM2/SPI MM2 SPI Pentlandite[4][4].msa
#FORMAT      : EMSA/MAS Spectral Data File
#VERSION     : 1.0
#TITLE       : SPI MM2 SPI Pentlandite[4][all]
#DATE        : 13-MAR-2025
#TIME        : 10:36
#OWNER       : Unknown
#NPOINTS     : 4096
#NCOLUMNS    : 1
#XUNITS      : eV
#YUNITS      : counts
#DATATYPE    : Y
#XPERCHAN    : 9.99778
#OFFSET      : 1.69135
#BEAMKV      : 20
#SIGNALTYPE  : EDS
#ELEVANGLE   : 35
#AZIMANGLE   : 0
#LIVETIME    : 239.903
#REALTIME    : 260.208
#PROBECUR    : 1.02606
#TAUWIND     : 0
#TDEADLYR    : 0
#TACTLYR     : 0.045
#TALWIND     : 0.025
#CHOFFSET    : 0.0
#XLABEL      : Energy (eV)
#YLABEL      : Counts
#XPOSITION   : 3.91682
#YPOSITION   : -0.29173
#ZPOSITION   : 31.0351
#EDSDET      : SD
##SPECIMEN   : SPI MM2 SPI Pentlandite[4][all]
##D2STDCMP   : SPI Pentlandite,(S:32.89),(Fe:30.88),(Co:0.43),(Ni:35.61)
##DET_HASH   : 12273538-fd48-a23f-0a19-f1e6fa85caef
##CALIB_HASH : 6abaa72c-aa41-8738-0be9-f592914732f3
##WORKING    : 15.0 mm
##DET_NAME   : EDAX All
##DET_MODE   : MediumLE
#SPECTRUM    :
23,
483,
11802,
3254,
13399,
50996,
63217,
3432,
3474,
4068,
4749,
5221,
5664,
5965,
5307,
5841,
62290,
49922,
10404,
3792,
3937,
3838,
3811,
3735,
3643,
3536,
3566,
3429,
3409,
3281,
3137,
3184,
3072,
3390,
2995,
2769,
2634,
2645,
2620,
2651,
2369,
2555,
2273,
2328,
2387,
17322,
50248,
2522,
1995,
2570,
7820,
4688,
2268,
35028,
17560,
1631,
1470,
1510,
2055,
7354,
1799,
1187,
1217,
1106,
1061,
1015,
1043,
1008,
945,
995,
1029,
924,
851,
838,
799,
823,
800,
820,
749,
715,
677,
612,
577,
600,
529,
572,
550,
464,
452,
463,
456,
472,
444,
423,
361,
352,
343,
338,
336,
311,
274,
258,
250,
233,
251,
233,
234,
222,
203,
186,
146,
159,
173,
138,
149,
121,
128,
126,
125,
101,
82,
71,
87,
71,
85,
75,
45,
59,
46,
45,
47,
38,
38,
29,
33,
24,
18,
16,
9,
16,
6,
5,
5,
3,
1,
1,
1,
0,
0,
2,
0,
2,
1,
0,
1,
1,
0,
1,
0,
3,
0,
0,
1,
0,
0,
0,
0,
0,
0,
2,
0,
0,
0,
1,
0,
1,
0,
0,
0,
0,
1,
0,
0,
0,
0,
0,
0,
0,
0,
0,
0,
0,
0,
0,
0,
0,
0,
0,
0,
0,
0,
0,
0,
0,
0,
0,
0,
0,
0,
0,
0,
0,
0,
0,
0,
0,
0,
0,
0,
0,
0,
0,
0,
0,
0,
0,
0,
0,
0,
0,
0,
0,
0,
0,
0,
0,
0,
1,
0,
0,
0,
0,
0,
0,
0,
0,
0,
0,
0,
0,
0,
0,
0,
0,
0,
0,
0,
0,
0,
0,
0,
0,
0,
0,
0,
0,
0,
0,
0,
0,
0,
0,
0,
0,
0,
0,
0,
0,
0,
0,
0,
0,
0,
0,
0,
0,
0,
0,
0,
0,
0,
0,
0,
0,
#ENDOFDATA   :