File: N132962/Quantification/20 keV/MMM2/SPI MM2 Scheelite[2][4].msa
#FORMAT      : EMSA/MAS Spectral Data File
#VERSION     : 1.0
#TITLE       : SPI MM2 Scheelite[2][all]
#DATE        : 13-MAR-2025
#TIME        : 12:14
#OWNER       : Unknown
#NPOINTS     : 4096
#NCOLUMNS    : 1
#XUNITS      : eV
#YUNITS      : counts
#DATATYPE    : Y
#XPERCHAN    : 9.99778
#OFFSET      : 1.69135
#BEAMKV      : 20
#SIGNALTYPE  : EDS
#ELEVANGLE   : 35
#AZIMANGLE   : 0
#LIVETIME    : 239.974
#REALTIME    : 263.083
#PROBECUR    : 1.02616
#TAUWIND     : 0
#TDEADLYR    : 0
#TACTLYR     : 0.045
#TALWIND     : 0.025
#CHOFFSET    : 0.0
#XLABEL      : Energy (eV)
#YLABEL      : Counts
#XPOSITION   : -2.80604
#YPOSITION   : 2.03725
#ZPOSITION   : 31.03511
#EDSDET      : SD
##SPECIMEN   : SPI MM2 Scheelite[2][all]
##DET_HASH   : 12273538-fd48-a23f-0a19-f1e6fa85caef
##CALIB_HASH : 6abaa72c-aa41-8738-0be9-f592914732f3
##WORKING    : 15.0 mm
##DET_NAME   : EDAX All
##DET_MODE   : MediumLE
#SPECTRUM    :
25,
519,
17718,
4783,
19858,
5163,
6260,
6675,
7523,
8762,
20970,
10010,
21262,
181177,
7395,
6047,
5500,
5652,
4705,
4727,
4998,
4741,
4967,
4893,
4926,
5302,
37539,
15233,
6180,
9492,
4436,
4313,
4311,
4170,
4058,
4190,
4024,
3909,
3800,
3885,
3745,
3666,
3447,
3320,
3234,
3349,
3537,
3121,
3074,
2908,
3015,
2899,
3053,
3978,
2708,
2586,
2617,
2490,
2452,
6883,
27769,
4345,
2441,
2191,
2099,
1926,
1949,
2060,
4050,
10930,
4740,
6259,
2673,
1786,
1514,
1435,
1403,
1306,
1382,
1342,
2050,
2119,
1326,
1471,
1242,
1051,
1109,
994,
909,
851,
920,
827,
818,
765,
739,
748,
729,
615,
666,
580,
585,
602,
527,
507,
491,
459,
440,
398,
382,
369,
325,
312,
331,
300,
287,
305,
257,
238,
230,
219,
204,
215,
183,
176,
142,
134,
128,
126,
94,
105,
110,
110,
86,
71,
52,
58,
47,
37,
35,
26,
24,
14,
11,
2,
9,
4,
4,
5,
3,
2,
3,
1,
3,
0,
3,
0,
1,
1,
5,
1,
2,
2,
2,
0,
2,
0,
0,
1,
2,
0,
3,
0,
0,
0,
1,
1,
0,
1,
0,
2,
1,
1,
0,
0,
2,
0,
0,
0,
0,
0,
1,
1,
0,
0,
0,
0,
0,
0,
1,
1,
0,
0,
0,
0,
0,
0,
0,
0,
0,
0,
0,
0,
0,
0,
0,
0,
1,
0,
0,
0,
0,
0,
0,
0,
0,
0,
0,
0,
0,
0,
0,
0,
0,
0,
0,
0,
0,
0,
0,
0,
0,
0,
0,
0,
0,
0,
0,
0,
0,
0,
0,
0,
0,
0,
0,
0,
0,
0,
0,
0,
0,
0,
0,
0,
0,
0,
0,
0,
0,
0,
0,
0,
0,
0,
0,
0,
0,
0,
0,
0,
0,
0,
0,
0,
0,
0,
0,
0,
0,
0,
0,
0,
0,
0,
#ENDOFDATA   :