File: N132962/Quantification/20 keV/MMM2/SPI MM2 Uvarovite[3][4].msa
#FORMAT      : EMSA/MAS Spectral Data File
#VERSION     : 1.0
#TITLE       : SPI MM2 Uvarovite[3][all]
#DATE        : 13-MAR-2025
#TIME        : 14:15
#OWNER       : Unknown
#NPOINTS     : 4096
#NCOLUMNS    : 1
#XUNITS      : eV
#YUNITS      : counts
#DATATYPE    : Y
#XPERCHAN    : 9.99778
#OFFSET      : 1.69135
#BEAMKV      : 20
#SIGNALTYPE  : EDS
#ELEVANGLE   : 35
#AZIMANGLE   : 0
#LIVETIME    : 239.758
#REALTIME    : 255.215
#PROBECUR    : 1.02609
#TAUWIND     : 0
#TDEADLYR    : 0
#TACTLYR     : 0.045
#TALWIND     : 0.025
#CHOFFSET    : 0.0
#XLABEL      : Energy (eV)
#YLABEL      : Counts
#XPOSITION   : 5.68505
#YPOSITION   : 6.4181
#ZPOSITION   : 31.03511
#EDSDET      : SD
##SPECIMEN   : SPI MM2 Uvarovite[3][all]
##DET_HASH   : 12273538-fd48-a23f-0a19-f1e6fa85caef
##CALIB_HASH : 6abaa72c-aa41-8738-0be9-f592914732f3
##WORKING    : 15.0 mm
##DET_NAME   : EDAX All
##DET_MODE   : MediumLE
#SPECTRUM    :
23,
211,
13372,
4222,
31587,
2628,
2461,
2999,
3495,
4206,
6133,
12897,
43523,
21413,
4611,
3331,
3545,
3179,
3289,
3159,
3127,
3003,
2941,
2921,
2703,
3306,
63962,
22328,
4799,
11288,
1984,
1834,
4377,
2022,
1719,
2283,
1797,
1658,
9123,
22400,
1589,
1504,
3546,
2897,
1137,
1552,
2457,
1115,
1067,
1031,
1117,
1118,
967,
1002,
900,
886,
873,
801,
783,
786,
724,
655,
685,
645,
656,
666,
623,
616,
559,
546,
515,
510,
471,
474,
462,
470,
417,
428,
384,
390,
383,
365,
349,
315,
314,
326,
272,
285,
276,
261,
229,
210,
217,
236,
205,
195,
162,
186,
181,
151,
140,
124,
122,
138,
133,
124,
102,
110,
85,
78,
75,
73,
66,
83,
72,
51,
64,
64,
57,
38,
34,
44,
41,
26,
41,
24,
30,
27,
24,
14,
18,
11,
24,
11,
12,
6,
10,
7,
4,
1,
7,
3,
1,
0,
0,
1,
0,
0,
0,
1,
1,
0,
0,
0,
0,
0,
0,
0,
0,
0,
0,
0,
0,
0,
0,
0,
0,
0,
0,
0,
0,
0,
0,
0,
0,
0,
0,
0,
0,
0,
0,
0,
0,
0,
0,
0,
0,
0,
0,
0,
0,
0,
0,
0,
0,
0,
0,
0,
0,
0,
0,
0,
0,
0,
0,
0,
0,
0,
0,
0,
0,
0,
0,
0,
0,
0,
0,
0,
0,
0,
0,
0,
0,
0,
0,
0,
0,
0,
0,
0,
0,
0,
0,
0,
0,
0,
0,
0,
0,
0,
0,
0,
0,
0,
0,
0,
0,
0,
0,
0,
0,
0,
0,
0,
0,
0,
0,
0,
0,
0,
0,
0,
0,
0,
0,
0,
0,
0,
0,
0,
0,
0,
0,
0,
0,
0,
0,
0,
0,
0,
0,
0,
0,
0,
0,
0,
0,
0,
0,
0,
0,
0,
0,
0,
#ENDOFDATA   :