File: N132962/Quantification/20 keV/MMM2/SPI MM2 Stibnite[2][4].msa
#FORMAT      : EMSA/MAS Spectral Data File
#VERSION     : 1.0
#TITLE       : SPI MM2 Stibnite[2][all]
#DATE        : 13-MAR-2025
#TIME        : 13:19
#OWNER       : Unknown
#NPOINTS     : 4096
#NCOLUMNS    : 1
#XUNITS      : eV
#YUNITS      : counts
#DATATYPE    : Y
#XPERCHAN    : 9.99778
#OFFSET      : 1.69135
#BEAMKV      : 20
#SIGNALTYPE  : EDS
#ELEVANGLE   : 35
#AZIMANGLE   : 0
#LIVETIME    : 239.846
#REALTIME    : 263.281
#PROBECUR    : 1.0263
#TAUWIND     : 0
#TDEADLYR    : 0
#TACTLYR     : 0.045
#TALWIND     : 0.025
#CHOFFSET    : 0.0
#XLABEL      : Energy (eV)
#YLABEL      : Counts
#XPOSITION   : 1.52695
#YPOSITION   : 4.36426
#ZPOSITION   : 31.03511
#EDSDET      : SD
##SPECIMEN   : SPI MM2 Stibnite[2][all]
##DET_HASH   : 12273538-fd48-a23f-0a19-f1e6fa85caef
##CALIB_HASH : 6abaa72c-aa41-8738-0be9-f592914732f3
##WORKING    : 15.0 mm
##DET_NAME   : EDAX All
##DET_MODE   : MediumLE
#SPECTRUM    :
24,
2043,
14865,
16706,
9452,
5372,
4780,
4692,
5217,
5878,
6738,
7302,
7915,
9061,
7471,
8456,
60589,
48513,
11948,
5615,
5683,
5716,
5788,
9224,
6106,
17270,
104989,
27595,
39088,
17481,
7186,
10321,
3935,
6351,
3321,
3189,
3257,
3044,
3145,
3158,
3036,
3082,
3129,
2927,
2901,
2962,
3167,
2679,
2610,
2617,
2503,
2482,
2428,
2550,
2415,
2244,
2179,
2168,
2154,
2030,
1959,
1880,
1821,
1895,
1836,
1742,
1719,
1669,
1640,
1569,
1521,
1519,
1464,
1379,
1350,
1348,
1243,
1255,
1198,
1147,
1118,
1065,
1104,
1020,
965,
940,
912,
835,
800,
831,
769,
735,
764,
702,
622,
618,
636,
538,
556,
543,
544,
471,
449,
443,
418,
445,
404,
412,
383,
322,
282,
309,
300,
247,
252,
280,
223,
209,
190,
186,
191,
166,
178,
141,
144,
139,
128,
116,
87,
80,
81,
68,
72,
72,
54,
49,
43,
42,
33,
20,
20,
12,
6,
1,
3,
1,
2,
0,
0,
0,
2,
3,
0,
0,
1,
1,
0,
0,
0,
2,
1,
0,
1,
0,
1,
0,
1,
0,
1,
0,
0,
1,
1,
1,
0,
1,
0,
1,
1,
0,
1,
0,
0,
1,
0,
0,
0,
0,
0,
0,
0,
0,
0,
1,
0,
1,
0,
0,
0,
0,
1,
1,
0,
1,
0,
0,
0,
0,
1,
0,
0,
0,
1,
0,
0,
0,
0,
0,
0,
0,
0,
0,
0,
0,
0,
0,
0,
0,
0,
0,
0,
0,
0,
0,
0,
0,
0,
0,
0,
0,
0,
0,
0,
0,
0,
0,
0,
0,
0,
0,
0,
0,
0,
0,
0,
0,
1,
0,
0,
0,
0,
0,
0,
0,
0,
0,
0,
0,
0,
0,
0,
0,
0,
0,
0,
0,
0,
0,
0,
0,
0,
0,
0,
0,
0,
0,
0,
0,
0,
0,
0,
0,
0,
0,
#ENDOFDATA   :