File: N132962/Quantification/20 keV/MMM2/SPI MM2 SPI Olivine[2][4].msa
#FORMAT      : EMSA/MAS Spectral Data File
#VERSION     : 1.0
#TITLE       : SPI MM2 SPI Olivine[2][all]
#DATE        : 13-MAR-2025
#TIME        : 09:47
#OWNER       : Unknown
#NPOINTS     : 4096
#NCOLUMNS    : 1
#XUNITS      : eV
#YUNITS      : counts
#DATATYPE    : Y
#XPERCHAN    : 9.99778
#OFFSET      : 1.69135
#BEAMKV      : 20
#SIGNALTYPE  : EDS
#ELEVANGLE   : 35
#AZIMANGLE   : 0
#LIVETIME    : 239.72
#REALTIME    : 255.85
#PROBECUR    : 1.02582
#TAUWIND     : 0
#TDEADLYR    : 0
#TACTLYR     : 0.045
#TALWIND     : 0.025
#CHOFFSET    : 0.0
#XLABEL      : Energy (eV)
#YLABEL      : Counts
#XPOSITION   : -3.16692
#YPOSITION   : -2.12294
#ZPOSITION   : 31.03509
#EDSDET      : SD
##SPECIMEN   : SPI MM2 SPI Olivine[2][all]
##D2STDCMP   : SPI Olivine,(O:43.96),(Mg:30.26),(Si:19.14),(Mn:0.089),(Fe:6.35),(Ni:0.278),5.0
##DET_HASH   : 12273538-fd48-a23f-0a19-f1e6fa85caef
##CALIB_HASH : 6abaa72c-aa41-8738-0be9-f592914732f3
##WORKING    : 15.0 mm
##DET_NAME   : EDAX All
##DET_MODE   : MediumLE
#SPECTRUM    :
17,
178,
8643,
6556,
68775,
7237,
3278,
3544,
5853,
239480,
2783,
3275,
39630,
19407,
2241,
2214,
2649,
2278,
2725,
2352,
2291,
2392,
2291,
2003,
1954,
2073,
1840,
1757,
1703,
1698,
1680,
1532,
1554,
1593,
1497,
1465,
1324,
1257,
1225,
1245,
1173,
1148,
1317,
1071,
1086,
3710,
9468,
1028,
918,
953,
1853,
1294,
744,
1032,
880,
706,
660,
657,
647,
700,
620,
554,
540,
522,
490,
473,
475,
478,
455,
421,
381,
413,
402,
367,
351,
344,
324,
350,
305,
273,
270,
285,
270,
257,
243,
219,
231,
189,
217,
194,
201,
183,
168,
159,
153,
133,
142,
135,
123,
105,
103,
107,
105,
77,
86,
74,
79,
74,
78,
64,
72,
68,
46,
42,
47,
50,
44,
42,
37,
39,
30,
27,
30,
36,
37,
20,
15,
12,
19,
20,
13,
15,
10,
8,
6,
4,
1,
4,
0,
2,
3,
2,
1,
2,
0,
1,
0,
0,
0,
0,
0,
0,
0,
0,
0,
0,
0,
0,
0,
0,
0,
0,
0,
0,
0,
0,
0,
0,
0,
0,
0,
0,
0,
0,
0,
0,
0,
0,
0,
0,
0,
0,
0,
0,
0,
0,
0,
0,
0,
0,
0,
0,
0,
0,
0,
0,
0,
0,
0,
0,
0,
0,
0,
0,
0,
0,
0,
0,
0,
0,
0,
0,
0,
0,
0,
0,
0,
0,
0,
0,
0,
0,
0,
0,
0,
0,
0,
0,
0,
0,
0,
0,
0,
0,
0,
0,
0,
0,
0,
0,
0,
0,
0,
0,
0,
0,
0,
0,
0,
0,
0,
0,
0,
0,
0,
0,
0,
0,
0,
0,
0,
0,
0,
0,
0,
0,
0,
0,
0,
0,
0,
0,
0,
0,
0,
0,
0,
0,
0,
0,
0,
0,
0,
0,
0,
0,
0,
0,
0,
0,
0,
0,
0,
0,
#ENDOFDATA   :