File: N132962/Quantification/20 keV/MMM2/SPI MM2 SPI Phlogpite[7][4].msa
#FORMAT      : EMSA/MAS Spectral Data File
#VERSION     : 1.0
#TITLE       : SPI MM2 SPI Phlogpite[7][all]
#DATE        : 13-MAR-2025
#TIME        : 10:49
#OWNER       : Unknown
#NPOINTS     : 4096
#NCOLUMNS    : 1
#XUNITS      : eV
#YUNITS      : counts
#DATATYPE    : Y
#XPERCHAN    : 9.99778
#OFFSET      : 1.69135
#BEAMKV      : 20
#SIGNALTYPE  : EDS
#ELEVANGLE   : 35
#AZIMANGLE   : 0
#LIVETIME    : 239.782
#REALTIME    : 254.636
#PROBECUR    : 1.02606
#TAUWIND     : 0
#TDEADLYR    : 0
#TACTLYR     : 0.045
#TALWIND     : 0.025
#CHOFFSET    : 0.0
#XLABEL      : Energy (eV)
#YLABEL      : Counts
#XPOSITION   : 1.43475
#YPOSITION   : -0.62128
#ZPOSITION   : 31.0351
#EDSDET      : SD
##SPECIMEN   : SPI MM2 SPI Phlogpite[7][all]
##D2STDCMP   : SPI Phlogpite,(H:0.48),(O:46.01),(Mg:17.47),(Al:6.47),(Si:20.19),(K:9.37)
##DET_HASH   : 12273538-fd48-a23f-0a19-f1e6fa85caef
##CALIB_HASH : 6abaa72c-aa41-8738-0be9-f592914732f3
##WORKING    : 15.0 mm
##DET_NAME   : EDAX All
##DET_MODE   : MediumLE
#SPECTRUM    :
31,
175,
10187,
5386,
50954,
7256,
2672,
3965,
4525,
108548,
6275,
19490,
40196,
19876,
2434,
2488,
2669,
2404,
2556,
2452,
2459,
2435,
2278,
6646,
24615,
2941,
4645,
1816,
1672,
1743,
1593,
1619,
2731,
1517,
1562,
1672,
1463,
1444,
1211,
1282,
1178,
1136,
1297,
1027,
1015,
3194,
7911,
959,
888,
929,
1701,
1248,
803,
816,
745,
684,
652,
641,
622,
574,
564,
552,
580,
534,
517,
513,
497,
479,
446,
453,
420,
409,
396,
379,
367,
358,
325,
360,
327,
314,
287,
267,
285,
240,
236,
232,
229,
201,
218,
178,
181,
158,
147,
156,
157,
142,
151,
135,
159,
118,
106,
109,
123,
95,
111,
80,
72,
90,
78,
64,
71,
60,
56,
56,
51,
41,
43,
46,
38,
38,
30,
30,
27,
37,
22,
20,
15,
24,
11,
17,
16,
10,
8,
12,
13,
6,
8,
7,
3,
4,
3,
0,
1,
0,
0,
0,
0,
0,
0,
0,
0,
0,
0,
0,
0,
0,
0,
0,
0,
0,
0,
0,
0,
0,
0,
0,
0,
0,
0,
0,
0,
0,
0,
0,
0,
0,
0,
0,
0,
0,
0,
0,
0,
0,
0,
0,
0,
0,
0,
0,
0,
0,
0,
0,
0,
0,
0,
0,
0,
0,
0,
0,
0,
0,
0,
0,
0,
0,
0,
0,
0,
0,
0,
0,
0,
0,
0,
0,
0,
0,
0,
0,
0,
0,
0,
0,
0,
0,
0,
0,
0,
0,
0,
0,
0,
0,
0,
0,
0,
0,
0,
0,
0,
0,
0,
0,
0,
0,
0,
0,
0,
0,
0,
0,
0,
0,
0,
0,
0,
0,
0,
0,
0,
0,
0,
0,
0,
0,
0,
0,
0,
0,
0,
0,
0,
0,
0,
0,
0,
0,
0,
0,
0,
0,
0,
0,
0,
0,
0,
0,
0,
0,
0,
0,
#ENDOFDATA   :