File: N132962/Quantification/20 keV/MMM2/SPI MM2 Sphene[5][4].msa
#FORMAT      : EMSA/MAS Spectral Data File
#VERSION     : 1.0
#TITLE       : SPI MM2 Sphene[5][all]
#DATE        : 13-MAR-2025
#TIME        : 13:04
#OWNER       : Unknown
#NPOINTS     : 4096
#NCOLUMNS    : 1
#XUNITS      : eV
#YUNITS      : counts
#DATATYPE    : Y
#XPERCHAN    : 9.99778
#OFFSET      : 1.69135
#BEAMKV      : 20
#SIGNALTYPE  : EDS
#ELEVANGLE   : 35
#AZIMANGLE   : 0
#LIVETIME    : 239.855
#REALTIME    : 254.819
#PROBECUR    : 1.02627
#TAUWIND     : 0
#TDEADLYR    : 0
#TACTLYR     : 0.045
#TALWIND     : 0.025
#CHOFFSET    : 0.0
#XLABEL      : Energy (eV)
#YLABEL      : Counts
#XPOSITION   : 6.07416
#YPOSITION   : 3.81421
#ZPOSITION   : 31.03511
#EDSDET      : SD
##SPECIMEN   : SPI MM2 Sphene[5][all]
##DET_HASH   : 12273538-fd48-a23f-0a19-f1e6fa85caef
##CALIB_HASH : 6abaa72c-aa41-8738-0be9-f592914732f3
##WORKING    : 15.0 mm
##DET_NAME   : EDAX All
##DET_MODE   : MediumLE
#SPECTRUM    :
28,
197,
13368,
7938,
21375,
2465,
2425,
3011,
3325,
3975,
4766,
6926,
38546,
19637,
4616,
3571,
3780,
3410,
3342,
3202,
3533,
3039,
2944,
2958,
2808,
3207,
56052,
19423,
4617,
9995,
2028,
2653,
60863,
8007,
2003,
9533,
2823,
1427,
1388,
1517,
1317,
1327,
1339,
1284,
1232,
1457,
1831,
1106,
1095,
1014,
1044,
1003,
1002,
1041,
926,
837,
807,
856,
839,
822,
798,
726,
701,
656,
653,
626,
609,
606,
563,
552,
570,
565,
522,
447,
429,
448,
398,
437,
407,
359,
401,
371,
307,
351,
303,
297,
280,
281,
264,
282,
240,
236,
220,
205,
202,
185,
182,
187,
170,
155,
143,
143,
130,
144,
127,
128,
99,
116,
85,
91,
82,
71,
82,
74,
68,
75,
65,
72,
58,
56,
45,
32,
39,
34,
29,
32,
27,
33,
25,
28,
20,
19,
20,
16,
7,
10,
7,
6,
6,
5,
3,
3,
2,
0,
1,
0,
0,
0,
0,
0,
1,
0,
0,
1,
0,
0,
0,
0,
0,
0,
0,
0,
0,
0,
0,
0,
0,
0,
0,
0,
0,
0,
0,
0,
0,
0,
0,
0,
0,
0,
0,
0,
0,
0,
0,
0,
0,
0,
0,
0,
0,
0,
0,
0,
0,
0,
0,
0,
0,
0,
0,
0,
0,
0,
0,
0,
0,
0,
0,
0,
0,
0,
0,
0,
0,
0,
0,
0,
0,
0,
0,
0,
0,
0,
0,
0,
0,
0,
0,
0,
0,
0,
0,
0,
0,
0,
0,
0,
0,
0,
0,
0,
0,
0,
0,
0,
0,
0,
0,
0,
0,
0,
0,
0,
0,
0,
0,
0,
0,
0,
0,
0,
0,
0,
0,
0,
0,
0,
0,
0,
0,
0,
0,
0,
0,
0,
0,
0,
0,
0,
0,
0,
0,
0,
0,
0,
0,
0,
0,
0,
0,
0,
0,
0,
#ENDOFDATA   :