File: N132962/Quantification/20 keV/MMM2/SPI MM2 SPI Mangotantalite[3][4].msa
#FORMAT      : EMSA/MAS Spectral Data File
#VERSION     : 1.0
#TITLE       : SPI MM2 SPI Mangotantalite[3][all]
#DATE        : 13-MAR-2025
#TIME        : 09:39
#OWNER       : Unknown
#NPOINTS     : 4096
#NCOLUMNS    : 1
#XUNITS      : eV
#YUNITS      : counts
#DATATYPE    : Y
#XPERCHAN    : 9.99778
#OFFSET      : 1.69135
#BEAMKV      : 20
#SIGNALTYPE  : EDS
#ELEVANGLE   : 35
#AZIMANGLE   : 0
#LIVETIME    : 239.945
#REALTIME    : 262.053
#PROBECUR    : 1.02582
#TAUWIND     : 0
#TDEADLYR    : 0
#TACTLYR     : 0.045
#TALWIND     : 0.025
#CHOFFSET    : 0.0
#XLABEL      : Energy (eV)
#YLABEL      : Counts
#XPOSITION   : -1.62144
#YPOSITION   : -4.68278
#ZPOSITION   : 31.03509
#EDSDET      : SD
##SPECIMEN   : SPI MM2 SPI Mangotantalite[3][all]
##DET_HASH   : 12273538-fd48-a23f-0a19-f1e6fa85caef
##CALIB_HASH : 6abaa72c-aa41-8738-0be9-f592914732f3
##WORKING    : 15.0 mm
##DET_NAME   : EDAX All
##DET_MODE   : MediumLE
#SPECTRUM    :
34,
719,
14674,
6081,
24811,
7845,
5757,
6516,
7177,
10288,
11178,
9999,
138152,
29637,
9922,
12508,
19193,
6442,
4624,
5133,
4700,
4749,
4958,
4761,
4885,
4957,
4740,
4806,
4769,
4633,
4673,
4608,
5413,
4536,
4213,
4358,
4136,
3990,
3891,
3813,
3779,
4552,
27944,
5491,
3526,
4608,
9380,
3996,
3025,
2984,
3352,
4123,
3010,
2887,
2733,
2603,
2501,
4213,
26189,
6824,
2552,
2387,
2200,
2104,
2118,
2352,
6039,
9797,
4110,
6004,
2272,
1738,
1623,
1457,
1524,
1463,
1415,
1790,
2660,
1392,
1724,
1463,
1117,
1114,
1102,
1032,
918,
913,
946,
839,
874,
789,
817,
769,
761,
735,
711,
666,
590,
590,
601,
561,
512,
497,
465,
437,
426,
411,
417,
412,
360,
318,
338,
298,
325,
254,
230,
234,
262,
266,
194,
199,
177,
181,
152,
145,
143,
125,
111,
114,
88,
86,
74,
82,
74,
59,
53,
45,
33,
29,
13,
13,
14,
4,
2,
2,
2,
5,
2,
1,
2,
4,
3,
5,
1,
4,
4,
0,
4,
1,
2,
3,
1,
0,
1,
2,
1,
0,
1,
3,
2,
2,
0,
0,
1,
0,
0,
0,
1,
1,
0,
1,
2,
2,
0,
0,
0,
0,
1,
0,
1,
0,
1,
0,
0,
0,
0,
0,
0,
0,
0,
0,
0,
0,
0,
0,
0,
0,
0,
1,
0,
0,
0,
0,
0,
0,
0,
0,
0,
0,
0,
0,
0,
0,
0,
0,
0,
0,
0,
0,
0,
0,
0,
0,
0,
0,
0,
0,
0,
0,
0,
0,
0,
0,
0,
0,
0,
0,
0,
0,
0,
0,
0,
0,
0,
0,
0,
0,
0,
0,
0,
0,
0,
0,
0,
0,
0,
0,
0,
0,
0,
0,
0,
0,
0,
0,
0,
0,
0,
0,
0,
0,
0,
0,
0,
0,
0,
0,
0,
0,
0,
0,
0,
0,
#ENDOFDATA   :