File: N132962/Quantification/20 keV/MMM2/SPI MM2 SPI Phlogpite[0][4].msa
#FORMAT      : EMSA/MAS Spectral Data File
#VERSION     : 1.0
#TITLE       : SPI MM2 SPI Phlogpite[0][all]
#DATE        : 13-MAR-2025
#TIME        : 10:41
#OWNER       : Unknown
#NPOINTS     : 4096
#NCOLUMNS    : 1
#XUNITS      : eV
#YUNITS      : counts
#DATATYPE    : Y
#XPERCHAN    : 9.99778
#OFFSET      : 1.69135
#BEAMKV      : 20
#SIGNALTYPE  : EDS
#ELEVANGLE   : 35
#AZIMANGLE   : 0
#LIVETIME    : 239.878
#REALTIME    : 254.756
#PROBECUR    : 1.02606
#TAUWIND     : 0
#TDEADLYR    : 0
#TACTLYR     : 0.045
#TALWIND     : 0.025
#CHOFFSET    : 0.0
#XLABEL      : Energy (eV)
#YLABEL      : Counts
#XPOSITION   : 1.50754
#YPOSITION   : -0.33326
#ZPOSITION   : 31.0351
#EDSDET      : SD
##SPECIMEN   : SPI MM2 SPI Phlogpite[0][all]
##D2STDCMP   : SPI Phlogpite,(H:0.48),(O:46.01),(Mg:17.47),(Al:6.47),(Si:20.19),(K:9.37)
##DET_HASH   : 12273538-fd48-a23f-0a19-f1e6fa85caef
##CALIB_HASH : 6abaa72c-aa41-8738-0be9-f592914732f3
##WORKING    : 15.0 mm
##DET_NAME   : EDAX All
##DET_MODE   : MediumLE
#SPECTRUM    :
27,
196,
10079,
5297,
51335,
7205,
2835,
3925,
4574,
109457,
6400,
19598,
39888,
19861,
2514,
2495,
2808,
2422,
2585,
2482,
2389,
2454,
2285,
6432,
24619,
2945,
4424,
1873,
1805,
1730,
1619,
1650,
2742,
1559,
1557,
1682,
1439,
1423,
1302,
1197,
1190,
1123,
1437,
1085,
1042,
3084,
7801,
989,
942,
932,
1606,
1199,
772,
785,
740,
686,
677,
625,
633,
636,
558,
560,
603,
523,
531,
491,
477,
445,
456,
451,
422,
388,
400,
369,
355,
330,
342,
353,
316,
301,
304,
281,
270,
296,
241,
216,
243,
226,
180,
217,
187,
175,
167,
148,
153,
137,
152,
136,
146,
119,
110,
114,
105,
93,
90,
82,
79,
75,
83,
75,
72,
66,
66,
50,
49,
45,
55,
33,
41,
51,
35,
20,
30,
27,
33,
30,
17,
13,
13,
14,
14,
12,
8,
13,
7,
9,
5,
5,
4,
5,
1,
1,
0,
0,
0,
0,
0,
0,
0,
0,
0,
0,
0,
0,
0,
1,
0,
0,
0,
0,
0,
0,
0,
0,
0,
0,
0,
0,
0,
0,
0,
0,
0,
0,
0,
0,
0,
0,
0,
0,
0,
0,
0,
0,
0,
0,
0,
0,
0,
0,
0,
0,
0,
0,
0,
0,
0,
0,
0,
0,
0,
0,
0,
0,
0,
0,
0,
0,
0,
0,
0,
0,
0,
0,
0,
0,
0,
0,
0,
0,
0,
0,
0,
0,
0,
0,
0,
0,
0,
0,
0,
0,
0,
0,
0,
0,
0,
0,
0,
0,
0,
0,
0,
0,
0,
0,
0,
0,
0,
0,
0,
0,
0,
0,
0,
0,
0,
0,
0,
0,
0,
0,
0,
0,
0,
0,
0,
0,
0,
0,
0,
0,
0,
0,
0,
0,
0,
0,
0,
0,
0,
0,
0,
0,
0,
0,
0,
0,
0,
0,
0,
0,
0,
0,
#ENDOFDATA   :