File: N132962/Quantification/20 keV/MMM2/SPI MM2 Spessartine[7][4].msa
#FORMAT      : EMSA/MAS Spectral Data File
#VERSION     : 1.0
#TITLE       : SPI MM2 Spessartine[7][all]
#DATE        : 13-MAR-2025
#TIME        : 12:10
#OWNER       : Unknown
#NPOINTS     : 4096
#NCOLUMNS    : 1
#XUNITS      : eV
#YUNITS      : counts
#DATATYPE    : Y
#XPERCHAN    : 9.99778
#OFFSET      : 1.69135
#BEAMKV      : 20
#SIGNALTYPE  : EDS
#ELEVANGLE   : 35
#AZIMANGLE   : 0
#LIVETIME    : 239.907
#REALTIME    : 256.2922
#PROBECUR    : 1.02616
#TAUWIND     : 0
#TDEADLYR    : 0
#TACTLYR     : 0.045
#TALWIND     : 0.025
#CHOFFSET    : 0.0
#XLABEL      : Energy (eV)
#YLABEL      : Counts
#XPOSITION   : -5.73199
#YPOSITION   : 1.58477
#ZPOSITION   : 31.03511
#EDSDET      : SD
##SPECIMEN   : SPI MM2 Spessartine[7][all]
##DET_HASH   : 12273538-fd48-a23f-0a19-f1e6fa85caef
##CALIB_HASH : 6abaa72c-aa41-8738-0be9-f592914732f3
##WORKING    : 15.0 mm
##DET_NAME   : EDAX All
##DET_MODE   : MediumLE
#SPECTRUM    :
21,
200,
9907,
7720,
71034,
5415,
2248,
2767,
3282,
3885,
9050,
30273,
37270,
18855,
3261,
3097,
3476,
3112,
3113,
3010,
2880,
2959,
2879,
2885,
2696,
2766,
3185,
2690,
2350,
2564,
2403,
2059,
2089,
2040,
2051,
1827,
1820,
1797,
1724,
1679,
1713,
3422,
70009,
7074,
1430,
2083,
9476,
3692,
1144,
1104,
1209,
1101,
979,
1031,
982,
846,
855,
912,
763,
749,
752,
776,
714,
743,
675,
644,
637,
643,
624,
552,
572,
526,
578,
512,
489,
470,
439,
409,
405,
384,
371,
334,
333,
342,
376,
339,
319,
304,
240,
254,
222,
205,
242,
226,
211,
223,
179,
200,
195,
154,
193,
152,
127,
155,
144,
128,
102,
114,
101,
109,
85,
78,
86,
92,
61,
68,
69,
56,
53,
40,
45,
40,
57,
39,
40,
35,
30,
39,
19,
26,
20,
22,
17,
20,
19,
15,
13,
5,
9,
9,
3,
2,
0,
1,
0,
0,
0,
0,
0,
0,
0,
1,
0,
0,
0,
0,
0,
0,
0,
0,
0,
0,
0,
0,
0,
0,
0,
0,
0,
0,
0,
0,
0,
0,
0,
0,
0,
0,
0,
0,
0,
0,
0,
0,
0,
0,
0,
0,
0,
0,
0,
0,
0,
0,
0,
0,
0,
0,
0,
0,
0,
0,
0,
0,
0,
1,
0,
0,
0,
0,
0,
0,
0,
0,
0,
0,
0,
0,
0,
0,
0,
0,
0,
0,
0,
0,
0,
0,
0,
0,
0,
0,
0,
0,
0,
0,
0,
0,
0,
0,
0,
0,
0,
0,
0,
0,
0,
0,
0,
0,
0,
0,
0,
0,
0,
0,
0,
0,
0,
0,
0,
0,
0,
0,
0,
0,
0,
0,
0,
0,
0,
0,
0,
0,
0,
0,
0,
0,
0,
0,
0,
0,
0,
0,
0,
0,
0,
0,
0,
0,
0,
0,
0,
0,
#ENDOFDATA   :