File: N132962/Quantification/20 keV/MMM2/SPI MM2 Quartz[1][4].msa
#FORMAT      : EMSA/MAS Spectral Data File
#VERSION     : 1.0
#TITLE       : SPI MM2 Quartz[1][all]
#DATE        : 13-MAR-2025
#TIME        : 12:31
#OWNER       : Unknown
#NPOINTS     : 4096
#NCOLUMNS    : 1
#XUNITS      : eV
#YUNITS      : counts
#DATATYPE    : Y
#XPERCHAN    : 9.99778
#OFFSET      : 1.69135
#BEAMKV      : 20
#SIGNALTYPE  : EDS
#ELEVANGLE   : 35
#AZIMANGLE   : 0
#LIVETIME    : 239.843
#REALTIME    : 257.832
#PROBECUR    : 1.02616
#TAUWIND     : 0
#TDEADLYR    : 0
#TACTLYR     : 0.045
#TALWIND     : 0.025
#CHOFFSET    : 0.0
#XLABEL      : Energy (eV)
#YLABEL      : Counts
#XPOSITION   : 2.45461
#YPOSITION   : 2.23493
#ZPOSITION   : 31.03511
#EDSDET      : SD
##SPECIMEN   : SPI MM2 Quartz[1][all]
##D2STDCMP   : Quartz,(O:53.2565),(Si:46.7435),2.65
##DET_HASH   : 12273538-fd48-a23f-0a19-f1e6fa85caef
##CALIB_HASH : 6abaa72c-aa41-8738-0be9-f592914732f3
##WORKING    : 15.0 mm
##DET_NAME   : EDAX All
##DET_MODE   : MediumLE
#SPECTRUM    :
25,
184,
8540,
6483,
66534,
1987,
2437,
3109,
3513,
4010,
4758,
6053,
129676,
58858,
1989,
2006,
3308,
2069,
2087,
2057,
1971,
2030,
1945,
1918,
1979,
2986,
1775,
1691,
1677,
1592,
1503,
1417,
1418,
1376,
1315,
1319,
1231,
1178,
1132,
1110,
1106,
1079,
1055,
905,
917,
986,
938,
798,
816,
798,
785,
713,
735,
726,
682,
653,
606,
611,
615,
549,
546,
557,
530,
494,
457,
428,
433,
437,
418,
388,
391,
339,
332,
306,
313,
332,
298,
285,
286,
289,
258,
233,
238,
207,
210,
209,
178,
204,
197,
149,
157,
174,
170,
137,
142,
143,
142,
121,
89,
103,
114,
88,
84,
90,
74,
81,
87,
69,
73,
63,
50,
51,
55,
53,
50,
48,
31,
36,
26,
31,
23,
25,
24,
40,
19,
26,
20,
16,
20,
15,
10,
8,
7,
11,
5,
4,
9,
2,
4,
0,
2,
3,
0,
0,
1,
0,
0,
1,
0,
0,
0,
1,
0,
0,
0,
0,
0,
0,
0,
0,
0,
0,
0,
0,
0,
0,
0,
0,
0,
0,
0,
0,
0,
0,
0,
0,
0,
0,
0,
0,
0,
0,
0,
1,
0,
0,
0,
0,
0,
0,
0,
0,
0,
0,
0,
0,
0,
0,
0,
0,
0,
0,
0,
0,
0,
0,
0,
0,
0,
0,
0,
0,
0,
0,
0,
0,
0,
0,
0,
0,
0,
0,
0,
0,
0,
0,
0,
0,
0,
0,
0,
0,
0,
0,
0,
0,
0,
0,
0,
0,
0,
0,
0,
0,
0,
0,
0,
0,
0,
0,
0,
0,
0,
0,
0,
0,
0,
0,
0,
0,
0,
0,
0,
0,
0,
0,
0,
0,
0,
0,
0,
0,
0,
0,
0,
0,
0,
0,
0,
0,
0,
0,
0,
0,
0,
0,
0,
0,
0,
0,
0,
0,
0,
0,
#ENDOFDATA   :