File: N132962/Quantification/20 keV/MMM2/SPI MM2 Scheelite[1][4].msa
#FORMAT      : EMSA/MAS Spectral Data File
#VERSION     : 1.0
#TITLE       : SPI MM2 Scheelite[1][all]
#DATE        : 13-MAR-2025
#TIME        : 12:13
#OWNER       : Unknown
#NPOINTS     : 4096
#NCOLUMNS    : 1
#XUNITS      : eV
#YUNITS      : counts
#DATATYPE    : Y
#XPERCHAN    : 9.99778
#OFFSET      : 1.69135
#BEAMKV      : 20
#SIGNALTYPE  : EDS
#ELEVANGLE   : 35
#AZIMANGLE   : 0
#LIVETIME    : 240.1164
#REALTIME    : 263.3464
#PROBECUR    : 1.02616
#TAUWIND     : 0
#TDEADLYR    : 0
#TACTLYR     : 0.045
#TALWIND     : 0.025
#CHOFFSET    : 0.0
#XLABEL      : Energy (eV)
#YLABEL      : Counts
#XPOSITION   : -2.84133
#YPOSITION   : 2.00301
#ZPOSITION   : 31.03511
#EDSDET      : SD
##SPECIMEN   : SPI MM2 Scheelite[1][all]
##DET_HASH   : 12273538-fd48-a23f-0a19-f1e6fa85caef
##CALIB_HASH : 6abaa72c-aa41-8738-0be9-f592914732f3
##WORKING    : 15.0 mm
##DET_NAME   : EDAX All
##DET_MODE   : MediumLE
#SPECTRUM    :
22,
529,
18165,
4787,
20059,
5093,
6165,
7021,
7730,
8899,
21252,
10049,
21509,
182218,
7424,
6164,
5499,
5569,
4902,
4800,
4932,
4800,
5105,
4977,
4902,
5242,
37727,
15058,
6134,
9636,
4416,
4296,
4238,
4191,
4163,
3960,
3983,
3929,
3841,
3885,
3650,
3609,
3563,
3434,
3382,
3419,
3470,
3142,
3001,
3081,
2899,
2814,
3141,
3832,
2735,
2567,
2505,
2387,
2652,
7020,
27419,
4359,
2435,
2216,
2118,
1966,
1996,
2033,
3929,
10914,
4844,
6353,
2704,
1781,
1558,
1412,
1410,
1316,
1431,
1293,
2029,
2218,
1326,
1536,
1230,
1054,
1084,
1011,
938,
920,
818,
811,
788,
754,
778,
678,
673,
598,
667,
641,
567,
543,
500,
475,
477,
435,
459,
424,
399,
365,
328,
337,
308,
284,
307,
280,
236,
238,
239,
220,
210,
207,
205,
150,
152,
154,
130,
110,
130,
94,
90,
87,
73,
61,
64,
47,
49,
45,
32,
22,
27,
12,
5,
5,
3,
3,
4,
1,
3,
4,
5,
1,
4,
2,
1,
1,
0,
0,
3,
0,
3,
3,
0,
1,
1,
1,
0,
1,
0,
0,
2,
0,
2,
0,
1,
1,
1,
0,
0,
0,
0,
1,
1,
1,
0,
0,
0,
0,
0,
0,
0,
1,
0,
1,
0,
0,
0,
0,
0,
0,
0,
1,
0,
0,
0,
0,
0,
0,
1,
0,
0,
1,
0,
0,
0,
0,
1,
0,
1,
0,
0,
0,
0,
0,
0,
0,
0,
0,
0,
0,
0,
0,
0,
0,
0,
0,
0,
0,
0,
0,
0,
0,
0,
0,
0,
0,
0,
0,
0,
0,
0,
0,
0,
0,
0,
0,
0,
0,
0,
0,
0,
0,
0,
0,
0,
0,
0,
0,
0,
0,
0,
0,
0,
0,
0,
0,
0,
0,
0,
0,
0,
0,
0,
0,
0,
0,
0,
0,
0,
0,
0,
0,
0,
0,
#ENDOFDATA   :