File: N132962/Quantification/20 keV/MMM2/SPI MM2 Spessartine[5][4].msa
#FORMAT      : EMSA/MAS Spectral Data File
#VERSION     : 1.0
#TITLE       : SPI MM2 Spessartine[5][all]
#DATE        : 13-MAR-2025
#TIME        : 12:08
#OWNER       : Unknown
#NPOINTS     : 4096
#NCOLUMNS    : 1
#XUNITS      : eV
#YUNITS      : counts
#DATATYPE    : Y
#XPERCHAN    : 9.99778
#OFFSET      : 1.69135
#BEAMKV      : 20
#SIGNALTYPE  : EDS
#ELEVANGLE   : 35
#AZIMANGLE   : 0
#LIVETIME    : 239.868
#REALTIME    : 256.24
#PROBECUR    : 1.02616
#TAUWIND     : 0
#TDEADLYR    : 0
#TACTLYR     : 0.045
#TALWIND     : 0.025
#CHOFFSET    : 0.0
#XLABEL      : Energy (eV)
#YLABEL      : Counts
#XPOSITION   : -5.77917
#YPOSITION   : 1.56153
#ZPOSITION   : 31.03511
#EDSDET      : SD
##SPECIMEN   : SPI MM2 Spessartine[5][all]
##DET_HASH   : 12273538-fd48-a23f-0a19-f1e6fa85caef
##CALIB_HASH : 6abaa72c-aa41-8738-0be9-f592914732f3
##WORKING    : 15.0 mm
##DET_NAME   : EDAX All
##DET_MODE   : MediumLE
#SPECTRUM    :
15,
217,
9851,
7600,
71711,
5391,
2300,
2829,
3400,
3981,
8909,
30330,
37040,
18542,
3210,
3139,
3481,
3109,
3087,
3108,
3036,
2980,
2841,
2859,
2712,
2690,
3207,
2745,
2424,
2450,
2300,
2096,
2070,
1979,
1987,
1787,
1777,
1752,
1693,
1658,
1573,
3525,
70122,
7164,
1499,
2040,
9640,
3767,
1111,
1087,
1268,
1077,
1036,
1042,
972,
946,
906,
780,
809,
792,
838,
709,
753,
727,
665,
684,
621,
605,
613,
556,
584,
529,
526,
491,
476,
510,
435,
423,
402,
399,
395,
381,
361,
352,
364,
335,
294,
268,
291,
274,
240,
259,
248,
254,
222,
174,
212,
201,
186,
188,
130,
160,
153,
156,
125,
126,
111,
107,
98,
93,
87,
94,
79,
69,
73,
54,
67,
76,
45,
64,
51,
37,
44,
35,
41,
34,
26,
30,
24,
24,
17,
20,
13,
8,
19,
8,
17,
7,
7,
4,
7,
3,
0,
1,
0,
0,
0,
0,
0,
0,
0,
1,
0,
0,
0,
0,
0,
0,
0,
0,
0,
0,
0,
0,
0,
0,
0,
0,
0,
1,
0,
0,
0,
0,
0,
0,
0,
0,
0,
0,
0,
0,
0,
0,
0,
0,
0,
0,
0,
0,
0,
0,
0,
0,
0,
0,
0,
0,
0,
0,
0,
0,
0,
0,
0,
0,
0,
0,
0,
0,
0,
0,
0,
0,
1,
0,
0,
0,
0,
0,
0,
0,
0,
0,
0,
0,
0,
0,
0,
0,
0,
0,
0,
0,
0,
0,
0,
0,
0,
0,
0,
0,
0,
0,
0,
0,
0,
0,
0,
0,
0,
0,
0,
0,
0,
0,
0,
0,
0,
0,
0,
0,
0,
0,
0,
0,
0,
0,
0,
0,
0,
0,
0,
0,
0,
0,
0,
0,
0,
0,
0,
0,
0,
0,
0,
0,
0,
0,
0,
0,
0,
0,
0,
0,
#ENDOFDATA   :