File: N132962/Quantification/20 keV/MMM2/SPI MM2 MgAl2O4[3][4].msa
#FORMAT      : EMSA/MAS Spectral Data File
#VERSION     : 1.0
#TITLE       : SPI MM2 MgAl2O4[3][all]
#DATE        : 13-MAR-2025
#TIME        : 09:30
#OWNER       : Unknown
#NPOINTS     : 4096
#NCOLUMNS    : 1
#XUNITS      : eV
#YUNITS      : counts
#DATATYPE    : Y
#XPERCHAN    : 9.99778
#OFFSET      : 1.69135
#BEAMKV      : 20
#SIGNALTYPE  : EDS
#ELEVANGLE   : 35
#AZIMANGLE   : 0
#LIVETIME    : 239.8274
#REALTIME    : 256.364
#PROBECUR    : 1.02582
#TAUWIND     : 0
#TDEADLYR    : 0
#TACTLYR     : 0.045
#TALWIND     : 0.025
#CHOFFSET    : 0.0
#XLABEL      : Energy (eV)
#YLABEL      : Counts
#XPOSITION   : 0.87938
#YPOSITION   : -5.3522
#ZPOSITION   : 31.03509
#EDSDET      : SD
##SPECIMEN   : SPI MM2 MgAl2O4[3][all]
##D2STDCMP   : MgAl2O4,(O:44.9839),(Mg:17.0844),(Al:37.9316)
##DET_HASH   : 12273538-fd48-a23f-0a19-f1e6fa85caef
##CALIB_HASH : 6abaa72c-aa41-8738-0be9-f592914732f3
##WORKING    : 15.0 mm
##DET_NAME   : EDAX All
##DET_MODE   : MediumLE
#SPECTRUM    :
20,
192,
8481,
6568,
69108,
1983,
2891,
3745,
5246,
152774,
19969,
91546,
2101,
2408,
2491,
2110,
2146,
2168,
2285,
2255,
2295,
2396,
2114,
1921,
1902,
1798,
1846,
1676,
1617,
1569,
1530,
1473,
1424,
1391,
1294,
1235,
1326,
1286,
1132,
1107,
1062,
1013,
1001,
956,
940,
875,
995,
832,
816,
801,
752,
721,
673,
666,
631,
639,
612,
624,
623,
548,
522,
505,
483,
485,
433,
438,
410,
384,
364,
386,
370,
380,
347,
360,
285,
322,
307,
260,
284,
258,
241,
227,
230,
212,
240,
192,
200,
181,
183,
163,
157,
139,
155,
142,
121,
122,
139,
141,
121,
83,
96,
91,
100,
85,
80,
72,
74,
62,
70,
68,
65,
39,
54,
44,
54,
28,
38,
35,
25,
28,
25,
35,
25,
22,
34,
10,
19,
14,
16,
8,
11,
10,
9,
11,
8,
5,
3,
6,
1,
2,
4,
1,
0,
0,
0,
0,
0,
1,
0,
0,
0,
0,
0,
0,
0,
0,
0,
0,
0,
0,
0,
0,
0,
0,
0,
0,
0,
0,
0,
0,
0,
0,
0,
0,
0,
0,
0,
0,
0,
0,
0,
0,
0,
0,
0,
0,
0,
0,
0,
0,
0,
0,
0,
0,
0,
0,
0,
0,
0,
0,
0,
0,
0,
0,
0,
0,
0,
0,
0,
0,
0,
0,
0,
0,
0,
0,
0,
0,
0,
0,
0,
0,
0,
0,
0,
0,
0,
0,
0,
0,
0,
0,
0,
0,
0,
0,
0,
0,
0,
0,
0,
0,
0,
0,
0,
0,
0,
0,
0,
0,
0,
0,
0,
0,
0,
0,
0,
0,
0,
0,
0,
0,
0,
0,
0,
0,
0,
0,
0,
0,
0,
0,
0,
0,
0,
0,
0,
0,
0,
0,
0,
0,
0,
0,
0,
0,
0,
0,
0,
0,
0,
0,
0,
0,
#ENDOFDATA   :