File: N132962/Quantification/20 keV/MMM2/SPI MM2 SPI Magnetite[2][4].msa
#FORMAT      : EMSA/MAS Spectral Data File
#VERSION     : 1.0
#TITLE       : SPI MM2 SPI Magnetite[2][all]
#DATE        : 13-MAR-2025
#TIME        : 09:20
#OWNER       : Unknown
#NPOINTS     : 4096
#NCOLUMNS    : 1
#XUNITS      : eV
#YUNITS      : counts
#DATATYPE    : Y
#XPERCHAN    : 9.99778
#OFFSET      : 1.69135
#BEAMKV      : 20
#SIGNALTYPE  : EDS
#ELEVANGLE   : 35
#AZIMANGLE   : 0
#LIVETIME    : 240.007
#REALTIME    : 256.996
#PROBECUR    : 1.02582
#TAUWIND     : 0
#TDEADLYR    : 0
#TACTLYR     : 0.045
#TALWIND     : 0.025
#CHOFFSET    : 0.0
#XLABEL      : Energy (eV)
#YLABEL      : Counts
#XPOSITION   : 3.95208
#YPOSITION   : -4.1611
#ZPOSITION   : 31.03509
#EDSDET      : SD
##SPECIMEN   : SPI MM2 SPI Magnetite[2][all]
##D2STDCMP   : SPI Magnetite,(O:27.53),(Si:0.01),(Mn:0.18),(Fe:71.88)
##DET_HASH   : 12273538-fd48-a23f-0a19-f1e6fa85caef
##CALIB_HASH : 6abaa72c-aa41-8738-0be9-f592914732f3
##WORKING    : 15.0 mm
##DET_NAME   : EDAX All
##DET_MODE   : MediumLE
#SPECTRUM    :
23,
270,
11897,
9463,
66537,
51880,
2375,
2343,
2906,
3496,
3749,
4170,
4582,
4835,
4313,
4448,
4352,
4373,
4299,
4183,
4213,
4127,
3957,
3903,
3597,
3645,
3462,
3239,
3256,
3049,
3032,
2972,
3011,
3230,
2785,
2774,
2429,
2361,
2346,
2389,
2279,
2237,
2601,
2167,
2315,
35953,
110018,
2910,
1903,
2426,
14244,
7753,
1221,
1267,
1241,
1209,
1105,
1177,
1127,
1046,
979,
1027,
1003,
946,
961,
909,
875,
873,
816,
778,
781,
791,
758,
697,
724,
668,
660,
644,
614,
549,
571,
572,
537,
514,
498,
475,
472,
399,
437,
410,
398,
436,
427,
321,
326,
313,
349,
304,
254,
299,
230,
219,
223,
205,
178,
188,
193,
182,
178,
147,
136,
141,
147,
131,
131,
94,
111,
97,
87,
82,
69,
66,
60,
61,
60,
47,
44,
46,
41,
35,
30,
30,
25,
27,
24,
26,
16,
11,
13,
8,
3,
5,
4,
2,
2,
1,
1,
0,
2,
1,
2,
3,
0,
0,
0,
2,
0,
1,
0,
1,
2,
0,
2,
0,
0,
0,
0,
0,
0,
0,
0,
0,
1,
0,
1,
0,
0,
2,
0,
0,
0,
0,
0,
0,
0,
0,
0,
0,
0,
0,
0,
0,
0,
0,
0,
0,
0,
0,
0,
0,
0,
0,
0,
0,
0,
0,
0,
0,
0,
0,
0,
0,
0,
0,
0,
0,
0,
0,
0,
0,
0,
0,
0,
0,
0,
0,
0,
0,
0,
0,
0,
0,
0,
0,
0,
0,
0,
0,
0,
0,
0,
0,
0,
0,
0,
0,
0,
0,
0,
0,
0,
0,
0,
0,
0,
0,
0,
0,
0,
0,
0,
0,
0,
0,
0,
0,
0,
0,
0,
0,
0,
0,
0,
0,
0,
0,
0,
0,
0,
0,
0,
0,
0,
0,
0,
0,
0,
0,
0,
0,
0,
0,
0,
0,
#ENDOFDATA   :