File: N132962/Quantification/20 keV/MMM2/SPI MM2 Pyrite[5][4].msa
#FORMAT      : EMSA/MAS Spectral Data File
#VERSION     : 1.0
#TITLE       : SPI MM2 Pyrite[5][all]
#DATE        : 13-MAR-2025
#TIME        : 12:54
#OWNER       : Unknown
#NPOINTS     : 4096
#NCOLUMNS    : 1
#XUNITS      : eV
#YUNITS      : counts
#DATATYPE    : Y
#XPERCHAN    : 9.99778
#OFFSET      : 1.69135
#BEAMKV      : 20
#SIGNALTYPE  : EDS
#ELEVANGLE   : 35
#AZIMANGLE   : 0
#LIVETIME    : 239.849
#REALTIME    : 262.058
#PROBECUR    : 1.02627
#TAUWIND     : 0
#TDEADLYR    : 0
#TACTLYR     : 0.045
#TALWIND     : 0.025
#CHOFFSET    : 0.0
#XLABEL      : Energy (eV)
#YLABEL      : Counts
#XPOSITION   : 7.84947
#YPOSITION   : 1.95178
#ZPOSITION   : 31.03511
#EDSDET      : SD
##SPECIMEN   : SPI MM2 Pyrite[5][all]
##DET_HASH   : 12273538-fd48-a23f-0a19-f1e6fa85caef
##CALIB_HASH : 6abaa72c-aa41-8738-0be9-f592914732f3
##WORKING    : 15.0 mm
##DET_NAME   : EDAX All
##DET_MODE   : MediumLE
#SPECTRUM    :
18,
700,
10575,
2749,
16755,
63269,
3640,
3508,
4147,
4883,
5643,
5761,
6215,
6334,
6035,
6460,
107071,
83343,
14218,
3041,
3136,
3347,
3225,
3131,
3036,
2989,
2967,
2909,
2899,
2789,
2770,
2744,
2662,
3679,
2717,
2417,
2355,
2265,
2314,
2164,
2102,
2063,
1961,
1945,
2207,
22985,
68641,
2470,
1703,
1961,
9439,
5423,
1320,
1405,
1318,
1262,
1141,
1177,
1149,
1126,
1048,
1090,
1309,
1003,
976,
883,
906,
910,
855,
800,
816,
758,
780,
770,
720,
695,
669,
653,
609,
601,
591,
564,
561,
486,
464,
467,
447,
438,
471,
397,
370,
409,
345,
363,
324,
306,
270,
301,
275,
268,
265,
229,
223,
213,
211,
188,
161,
159,
145,
148,
153,
111,
121,
118,
133,
77,
114,
98,
88,
58,
99,
75,
75,
59,
51,
58,
46,
54,
31,
33,
33,
33,
36,
23,
19,
16,
14,
7,
20,
4,
8,
4,
7,
1,
1,
1,
0,
0,
0,
0,
0,
2,
0,
1,
2,
0,
0,
1,
0,
0,
0,
0,
0,
0,
0,
0,
0,
0,
0,
0,
1,
1,
0,
0,
0,
0,
0,
0,
1,
0,
1,
0,
0,
1,
0,
0,
0,
0,
0,
0,
0,
0,
0,
0,
0,
0,
0,
0,
0,
0,
0,
0,
0,
0,
0,
0,
0,
0,
0,
0,
0,
0,
0,
0,
0,
0,
0,
0,
0,
0,
0,
0,
0,
0,
0,
0,
0,
0,
0,
0,
0,
0,
0,
0,
0,
0,
0,
0,
0,
0,
0,
0,
0,
0,
0,
0,
0,
0,
0,
0,
0,
0,
0,
0,
0,
0,
0,
0,
0,
0,
0,
0,
0,
0,
0,
0,
0,
0,
0,
0,
0,
0,
0,
0,
0,
0,
0,
0,
0,
0,
0,
0,
0,
0,
0,
0,
0,
0,
0,
0,
0,
0,
0,
0,
#ENDOFDATA   :