File: N132962/Quantification/20 keV/MMM2/SPI MM2 Uvarovite[7][4].msa
#FORMAT      : EMSA/MAS Spectral Data File
#VERSION     : 1.0
#TITLE       : SPI MM2 Uvarovite[7][all]
#DATE        : 13-MAR-2025
#TIME        : 14:20
#OWNER       : Unknown
#NPOINTS     : 4096
#NCOLUMNS    : 1
#XUNITS      : eV
#YUNITS      : counts
#DATATYPE    : Y
#XPERCHAN    : 9.99778
#OFFSET      : 1.69135
#BEAMKV      : 20
#SIGNALTYPE  : EDS
#ELEVANGLE   : 35
#AZIMANGLE   : 0
#LIVETIME    : 239.901
#REALTIME    : 255.398
#PROBECUR    : 1.02609
#TAUWIND     : 0
#TDEADLYR    : 0
#TACTLYR     : 0.045
#TALWIND     : 0.025
#CHOFFSET    : 0.0
#XLABEL      : Energy (eV)
#YLABEL      : Counts
#XPOSITION   : 5.73154
#YPOSITION   : 6.40336
#ZPOSITION   : 31.03511
#EDSDET      : SD
##SPECIMEN   : SPI MM2 Uvarovite[7][all]
##DET_HASH   : 12273538-fd48-a23f-0a19-f1e6fa85caef
##CALIB_HASH : 6abaa72c-aa41-8738-0be9-f592914732f3
##WORKING    : 15.0 mm
##DET_NAME   : EDAX All
##DET_MODE   : MediumLE
#SPECTRUM    :
23,
188,
13566,
4126,
32062,
2661,
2447,
2991,
3428,
4246,
6082,
13027,
43610,
21700,
4556,
3318,
3641,
3283,
3250,
3090,
3053,
2998,
3005,
2927,
2645,
3389,
64118,
22123,
4922,
11433,
2054,
1888,
4438,
1995,
1720,
2347,
1822,
1703,
8921,
22595,
1577,
1533,
3516,
2929,
1130,
1581,
2473,
1074,
1036,
1050,
1123,
1122,
967,
991,
896,
897,
814,
787,
748,
793,
744,
726,
701,
685,
662,
661,
601,
612,
574,
585,
511,
532,
468,
501,
476,
404,
397,
420,
371,
392,
358,
361,
339,
352,
304,
317,
294,
290,
249,
263,
229,
197,
214,
210,
196,
188,
186,
183,
160,
139,
152,
124,
129,
140,
130,
102,
122,
108,
97,
87,
68,
79,
83,
69,
67,
59,
62,
62,
53,
44,
59,
42,
42,
40,
29,
36,
28,
28,
15,
16,
26,
12,
9,
17,
9,
6,
9,
5,
4,
5,
3,
1,
1,
0,
0,
1,
0,
0,
1,
1,
1,
0,
0,
0,
1,
0,
0,
0,
0,
0,
0,
0,
0,
0,
0,
0,
0,
0,
0,
0,
0,
0,
0,
0,
0,
0,
0,
0,
0,
0,
0,
0,
0,
0,
0,
0,
0,
0,
0,
0,
0,
0,
0,
0,
0,
0,
0,
0,
0,
0,
0,
0,
0,
0,
0,
0,
0,
0,
0,
0,
0,
0,
0,
0,
0,
0,
0,
0,
0,
0,
0,
0,
0,
0,
0,
0,
0,
0,
0,
0,
0,
0,
0,
0,
0,
0,
0,
0,
0,
0,
0,
0,
0,
0,
0,
0,
0,
0,
0,
0,
0,
0,
0,
0,
0,
0,
0,
0,
0,
0,
0,
0,
0,
0,
0,
0,
0,
0,
0,
0,
0,
0,
0,
0,
0,
0,
0,
0,
0,
0,
0,
0,
0,
0,
0,
0,
0,
0,
0,
0,
0,
0,
0,
0,
#ENDOFDATA   :