File: N132962/Quantification/20 keV/MMM2/SPI MM2 Uvarovite[1][4].msa
#FORMAT      : EMSA/MAS Spectral Data File
#VERSION     : 1.0
#TITLE       : SPI MM2 Uvarovite[1][all]
#DATE        : 13-MAR-2025
#TIME        : 14:13
#OWNER       : Unknown
#NPOINTS     : 4096
#NCOLUMNS    : 1
#XUNITS      : eV
#YUNITS      : counts
#DATATYPE    : Y
#XPERCHAN    : 9.99778
#OFFSET      : 1.69135
#BEAMKV      : 20
#SIGNALTYPE  : EDS
#ELEVANGLE   : 35
#AZIMANGLE   : 0
#LIVETIME    : 239.897
#REALTIME    : 255.395
#PROBECUR    : 1.02609
#TAUWIND     : 0
#TDEADLYR    : 0
#TACTLYR     : 0.045
#TALWIND     : 0.025
#CHOFFSET    : 0.0
#XLABEL      : Energy (eV)
#YLABEL      : Counts
#XPOSITION   : 5.73735
#YPOSITION   : 6.33131
#ZPOSITION   : 31.03511
#EDSDET      : SD
##SPECIMEN   : SPI MM2 Uvarovite[1][all]
##DET_HASH   : 12273538-fd48-a23f-0a19-f1e6fa85caef
##CALIB_HASH : 6abaa72c-aa41-8738-0be9-f592914732f3
##WORKING    : 15.0 mm
##DET_NAME   : EDAX All
##DET_MODE   : MediumLE
#SPECTRUM    :
22,
174,
13546,
4139,
32457,
2745,
2433,
2893,
3533,
4224,
6172,
13323,
43709,
21441,
4527,
3400,
3510,
3335,
3121,
3122,
3030,
2905,
2938,
2931,
2725,
3335,
63841,
22101,
4979,
11308,
1957,
1847,
3914,
1914,
1717,
2290,
1766,
1555,
8761,
22174,
1465,
1450,
3439,
2871,
1167,
1589,
2523,
1120,
1121,
1095,
1131,
1140,
942,
953,
952,
876,
848,
795,
734,
700,
721,
717,
736,
630,
583,
603,
609,
628,
588,
531,
525,
489,
491,
459,
459,
466,
412,
409,
395,
337,
373,
365,
322,
305,
302,
299,
306,
279,
276,
255,
257,
240,
221,
236,
180,
211,
166,
188,
182,
151,
141,
140,
132,
137,
121,
117,
112,
93,
98,
117,
112,
83,
72,
54,
65,
55,
52,
58,
48,
52,
44,
34,
46,
25,
32,
33,
31,
26,
25,
21,
16,
16,
15,
16,
4,
12,
16,
4,
10,
3,
4,
3,
0,
1,
0,
0,
0,
0,
0,
0,
0,
0,
1,
0,
0,
0,
0,
0,
0,
0,
0,
0,
1,
0,
0,
0,
0,
0,
0,
0,
0,
0,
0,
0,
0,
0,
0,
0,
0,
0,
0,
0,
0,
0,
0,
0,
0,
0,
0,
0,
0,
1,
0,
0,
0,
0,
0,
0,
0,
0,
0,
0,
0,
0,
0,
0,
0,
0,
0,
0,
0,
0,
0,
0,
0,
0,
0,
0,
0,
0,
0,
0,
0,
0,
0,
0,
0,
0,
0,
0,
0,
0,
0,
0,
0,
0,
0,
0,
0,
0,
0,
0,
0,
0,
0,
0,
0,
0,
0,
0,
0,
0,
0,
0,
0,
0,
0,
0,
0,
0,
0,
0,
0,
0,
0,
0,
0,
0,
0,
0,
0,
0,
0,
0,
0,
0,
0,
0,
0,
0,
0,
0,
0,
0,
0,
0,
0,
0,
0,
0,
0,
0,
0,
0,
#ENDOFDATA   :