File: N132962/Quantification/20 keV/MMM2/SPI MM2 Scheelite[0][4].msa
#FORMAT      : EMSA/MAS Spectral Data File
#VERSION     : 1.0
#TITLE       : SPI MM2 Scheelite[0][all]
#DATE        : 13-MAR-2025
#TIME        : 12:12
#OWNER       : Unknown
#NPOINTS     : 4096
#NCOLUMNS    : 1
#XUNITS      : eV
#YUNITS      : counts
#DATATYPE    : Y
#XPERCHAN    : 9.99778
#OFFSET      : 1.69135
#BEAMKV      : 20
#SIGNALTYPE  : EDS
#ELEVANGLE   : 35
#AZIMANGLE   : 0
#LIVETIME    : 239.966
#REALTIME    : 263.0887
#PROBECUR    : 1.02616
#TAUWIND     : 0
#TDEADLYR    : 0
#TACTLYR     : 0.045
#TALWIND     : 0.025
#CHOFFSET    : 0.0
#XLABEL      : Energy (eV)
#YLABEL      : Counts
#XPOSITION   : -2.79232
#YPOSITION   : 1.98449
#ZPOSITION   : 31.03511
#EDSDET      : SD
##SPECIMEN   : SPI MM2 Scheelite[0][all]
##DET_HASH   : 12273538-fd48-a23f-0a19-f1e6fa85caef
##CALIB_HASH : 6abaa72c-aa41-8738-0be9-f592914732f3
##WORKING    : 15.0 mm
##DET_NAME   : EDAX All
##DET_MODE   : MediumLE
#SPECTRUM    :
28,
496,
17878,
4591,
20034,
5074,
6186,
6817,
7608,
8763,
21184,
10153,
21631,
180695,
7444,
6133,
5595,
5499,
4804,
4748,
4866,
4813,
4767,
4909,
4781,
5327,
37192,
15178,
6063,
9494,
4368,
4183,
4173,
4257,
4180,
4026,
4050,
3868,
3825,
4034,
3717,
3566,
3485,
3361,
3329,
3341,
3542,
3138,
3007,
3025,
2896,
2792,
3203,
3935,
2754,
2611,
2558,
2473,
2493,
7008,
27520,
4169,
2365,
2160,
2061,
1995,
1907,
2009,
3908,
10782,
4823,
6197,
2665,
1812,
1536,
1479,
1351,
1301,
1356,
1316,
2000,
2137,
1277,
1536,
1179,
1059,
1040,
1006,
931,
903,
845,
784,
807,
727,
744,
713,
687,
699,
653,
561,
566,
527,
528,
506,
491,
504,
415,
399,
384,
393,
382,
368,
302,
286,
304,
253,
228,
262,
248,
201,
226,
214,
190,
177,
153,
137,
148,
122,
115,
111,
103,
87,
98,
88,
65,
52,
46,
44,
35,
30,
25,
20,
3,
5,
5,
3,
1,
1,
0,
1,
1,
1,
0,
1,
1,
1,
2,
0,
1,
2,
3,
1,
1,
0,
3,
1,
2,
1,
0,
1,
2,
1,
2,
0,
1,
0,
0,
1,
0,
1,
0,
0,
1,
1,
0,
0,
1,
0,
0,
2,
1,
0,
1,
0,
0,
0,
0,
0,
0,
0,
0,
0,
0,
0,
0,
1,
0,
0,
1,
0,
0,
0,
0,
0,
0,
0,
0,
0,
0,
0,
0,
0,
0,
0,
0,
1,
0,
0,
0,
0,
0,
0,
0,
0,
0,
0,
0,
0,
0,
0,
0,
0,
0,
0,
0,
0,
0,
0,
0,
0,
0,
0,
0,
0,
0,
0,
0,
0,
0,
0,
0,
0,
0,
0,
0,
0,
0,
0,
0,
0,
0,
0,
0,
0,
0,
0,
0,
0,
0,
0,
0,
0,
0,
0,
0,
0,
0,
0,
0,
0,
0,
0,
0,
0,
#ENDOFDATA   :