File: N132962/Quantification/20 keV/MMM2/SPI MM2 SPI Phlogpite[4][4].msa
#FORMAT      : EMSA/MAS Spectral Data File
#VERSION     : 1.0
#TITLE       : SPI MM2 SPI Phlogpite[4][all]
#DATE        : 13-MAR-2025
#TIME        : 10:45
#OWNER       : Unknown
#NPOINTS     : 4096
#NCOLUMNS    : 1
#XUNITS      : eV
#YUNITS      : counts
#DATATYPE    : Y
#XPERCHAN    : 9.99778
#OFFSET      : 1.69135
#BEAMKV      : 20
#SIGNALTYPE  : EDS
#ELEVANGLE   : 35
#AZIMANGLE   : 0
#LIVETIME    : 239.793
#REALTIME    : 254.625
#PROBECUR    : 1.02606
#TAUWIND     : 0
#TDEADLYR    : 0
#TACTLYR     : 0.045
#TALWIND     : 0.025
#CHOFFSET    : 0.0
#XLABEL      : Energy (eV)
#YLABEL      : Counts
#XPOSITION   : 1.46386
#YPOSITION   : -0.50064
#ZPOSITION   : 31.0351
#EDSDET      : SD
##SPECIMEN   : SPI MM2 SPI Phlogpite[4][all]
##D2STDCMP   : SPI Phlogpite,(H:0.48),(O:46.01),(Mg:17.47),(Al:6.47),(Si:20.19),(K:9.37)
##DET_HASH   : 12273538-fd48-a23f-0a19-f1e6fa85caef
##CALIB_HASH : 6abaa72c-aa41-8738-0be9-f592914732f3
##WORKING    : 15.0 mm
##DET_NAME   : EDAX All
##DET_MODE   : MediumLE
#SPECTRUM    :
24,
190,
10302,
5388,
50730,
7172,
2807,
4064,
4673,
108446,
6367,
19739,
40419,
20129,
2553,
2475,
2746,
2453,
2599,
2400,
2432,
2437,
2343,
6694,
24618,
2910,
4552,
1881,
1751,
1708,
1647,
1639,
2703,
1559,
1586,
1718,
1424,
1364,
1211,
1250,
1213,
1136,
1352,
1133,
1132,
3186,
8161,
1051,
920,
880,
1613,
1161,
772,
782,
737,
696,
700,
637,
618,
598,
619,
582,
569,
585,
536,
511,
491,
441,
463,
449,
412,
416,
420,
377,
390,
335,
366,
362,
321,
296,
279,
264,
287,
258,
226,
225,
204,
197,
182,
189,
209,
181,
186,
152,
161,
159,
154,
121,
140,
124,
144,
89,
90,
85,
104,
108,
93,
93,
83,
74,
57,
70,
48,
70,
41,
51,
40,
39,
28,
25,
31,
27,
29,
31,
18,
20,
22,
14,
19,
13,
14,
10,
10,
10,
5,
6,
1,
5,
5,
1,
3,
1,
2,
0,
0,
0,
0,
0,
0,
0,
0,
0,
0,
0,
0,
0,
0,
0,
0,
0,
0,
0,
0,
0,
0,
0,
0,
0,
0,
1,
0,
0,
0,
0,
0,
0,
0,
0,
0,
0,
0,
0,
1,
0,
0,
0,
0,
0,
0,
0,
0,
0,
0,
0,
0,
0,
0,
0,
0,
0,
0,
0,
0,
0,
0,
0,
0,
0,
0,
0,
0,
0,
0,
0,
0,
0,
0,
0,
0,
0,
0,
0,
0,
0,
0,
0,
0,
0,
0,
0,
0,
0,
0,
0,
0,
0,
0,
0,
0,
0,
0,
0,
0,
0,
0,
0,
0,
0,
0,
0,
0,
0,
0,
0,
0,
0,
0,
0,
0,
0,
0,
0,
0,
0,
0,
0,
0,
0,
0,
0,
0,
0,
0,
0,
0,
0,
0,
0,
0,
0,
0,
0,
0,
0,
0,
0,
0,
0,
0,
0,
0,
0,
0,
0,
#ENDOFDATA   :