File: N132962/Quantification/20 keV/MMM2/SPI MM2 Uvarovite[0][4].msa
#FORMAT      : EMSA/MAS Spectral Data File
#VERSION     : 1.0
#TITLE       : SPI MM2 Uvarovite[0][all]
#DATE        : 13-MAR-2025
#TIME        : 14:12
#OWNER       : Unknown
#NPOINTS     : 4096
#NCOLUMNS    : 1
#XUNITS      : eV
#YUNITS      : counts
#DATATYPE    : Y
#XPERCHAN    : 9.99778
#OFFSET      : 1.69135
#BEAMKV      : 20
#SIGNALTYPE  : EDS
#ELEVANGLE   : 35
#AZIMANGLE   : 0
#LIVETIME    : 239.874
#REALTIME    : 255.395
#PROBECUR    : 1.02609
#TAUWIND     : 0
#TDEADLYR    : 0
#TACTLYR     : 0.045
#TALWIND     : 0.025
#CHOFFSET    : 0.0
#XLABEL      : Energy (eV)
#YLABEL      : Counts
#XPOSITION   : 5.76431
#YPOSITION   : 6.40179
#ZPOSITION   : 31.03511
#EDSDET      : SD
##SPECIMEN   : SPI MM2 Uvarovite[0][all]
##DET_HASH   : 12273538-fd48-a23f-0a19-f1e6fa85caef
##CALIB_HASH : 6abaa72c-aa41-8738-0be9-f592914732f3
##WORKING    : 15.0 mm
##DET_NAME   : EDAX All
##DET_MODE   : MediumLE
#SPECTRUM    :
28,
189,
13547,
4053,
32059,
2701,
2565,
2977,
3533,
4285,
6000,
13475,
43970,
21780,
4441,
3308,
3595,
3175,
3145,
3100,
3032,
2977,
2908,
2911,
2712,
3248,
64250,
22107,
4808,
11408,
1958,
1827,
3739,
1898,
1684,
2284,
1823,
1730,
8663,
22091,
1544,
1457,
3502,
2963,
1174,
1605,
2425,
1086,
1039,
1026,
1164,
1137,
895,
966,
896,
909,
819,
822,
808,
790,
757,
677,
706,
696,
646,
675,
594,
596,
639,
533,
553,
490,
482,
499,
417,
438,
448,
433,
385,
414,
359,
351,
304,
325,
305,
303,
297,
306,
260,
255,
248,
266,
222,
228,
168,
200,
190,
203,
152,
171,
152,
140,
136,
136,
139,
105,
115,
114,
89,
83,
65,
66,
79,
78,
52,
74,
59,
66,
51,
45,
47,
38,
31,
29,
41,
39,
23,
24,
18,
26,
13,
18,
17,
8,
13,
11,
9,
7,
6,
5,
4,
4,
1,
0,
1,
0,
0,
1,
1,
0,
1,
1,
0,
0,
0,
1,
0,
0,
0,
0,
0,
0,
1,
0,
0,
2,
0,
0,
0,
0,
0,
0,
0,
0,
0,
0,
0,
0,
0,
0,
0,
0,
0,
0,
0,
0,
0,
0,
0,
0,
0,
0,
0,
0,
0,
0,
0,
0,
0,
0,
0,
0,
0,
0,
0,
0,
0,
0,
0,
0,
0,
0,
0,
0,
0,
0,
0,
0,
0,
0,
0,
0,
0,
0,
0,
0,
0,
0,
0,
0,
0,
0,
0,
0,
0,
0,
0,
0,
0,
0,
0,
0,
0,
0,
0,
0,
0,
0,
0,
0,
0,
0,
0,
0,
0,
0,
0,
0,
0,
0,
0,
0,
0,
0,
0,
0,
0,
0,
0,
0,
0,
0,
0,
0,
0,
0,
0,
0,
0,
0,
0,
0,
0,
0,
0,
0,
0,
0,
0,
0,
0,
0,
0,
0,
#ENDOFDATA   :