File: N132962/Quantification/20 keV/MMM2/SPI MM2 Tugtupite[1][4].msa
#FORMAT      : EMSA/MAS Spectral Data File
#VERSION     : 1.0
#TITLE       : SPI MM2 Tugtupite[1][all]
#DATE        : 13-MAR-2025
#TIME        : 13:36
#OWNER       : Unknown
#NPOINTS     : 4096
#NCOLUMNS    : 1
#XUNITS      : eV
#YUNITS      : counts
#DATATYPE    : Y
#XPERCHAN    : 9.99778
#OFFSET      : 1.69135
#BEAMKV      : 20
#SIGNALTYPE  : EDS
#ELEVANGLE   : 35
#AZIMANGLE   : 0
#LIVETIME    : 239.8374
#REALTIME    : 255.339
#PROBECUR    : 1.0264
#TAUWIND     : 0
#TDEADLYR    : 0
#TACTLYR     : 0.045
#TALWIND     : 0.025
#CHOFFSET    : 0.0
#XLABEL      : Energy (eV)
#YLABEL      : Counts
#XPOSITION   : -4.51562
#YPOSITION   : 3.53722
#ZPOSITION   : 31.03512
#EDSDET      : SD
##SPECIMEN   : SPI MM2 Tugtupite[1][all]
##DET_HASH   : 12273538-fd48-a23f-0a19-f1e6fa85caef
##CALIB_HASH : 6abaa72c-aa41-8738-0be9-f592914732f3
##WORKING    : 15.0 mm
##DET_NAME   : EDAX All
##DET_MODE   : MediumLE
#SPECTRUM    :
31,
224,
8425,
5274,
50992,
2350,
3511,
29689,
8642,
3205,
6230,
18722,
55706,
26647,
2245,
2413,
2665,
2333,
5140,
29962,
5897,
2033,
2059,
1988,
1842,
2046,
1798,
1700,
1676,
1493,
1623,
1634,
1432,
1342,
1303,
1379,
1298,
1181,
1225,
1224,
1118,
1045,
1028,
963,
876,
944,
968,
908,
834,
861,
753,
759,
771,
730,
674,
661,
611,
596,
625,
574,
533,
509,
527,
478,
464,
471,
442,
417,
441,
409,
386,
376,
378,
349,
327,
331,
321,
311,
287,
250,
253,
271,
262,
229,
245,
246,
220,
204,
182,
183,
152,
166,
172,
151,
115,
130,
121,
115,
99,
119,
105,
116,
99,
73,
78,
66,
79,
85,
74,
50,
69,
62,
49,
46,
35,
41,
31,
38,
49,
32,
31,
30,
21,
22,
20,
25,
11,
22,
17,
14,
11,
14,
20,
9,
8,
7,
1,
4,
4,
1,
5,
2,
2,
0,
0,
0,
0,
0,
0,
0,
0,
0,
0,
0,
0,
0,
0,
0,
0,
0,
0,
0,
0,
0,
0,
0,
0,
0,
0,
0,
0,
0,
0,
0,
0,
0,
1,
0,
0,
0,
0,
0,
0,
0,
0,
0,
0,
0,
0,
0,
0,
0,
0,
0,
0,
0,
0,
0,
0,
0,
0,
0,
0,
0,
0,
0,
0,
0,
0,
0,
0,
0,
0,
0,
0,
0,
0,
0,
0,
0,
0,
0,
0,
0,
0,
0,
0,
0,
0,
0,
0,
0,
0,
0,
0,
0,
0,
0,
0,
0,
0,
0,
0,
0,
0,
0,
0,
0,
0,
0,
0,
0,
0,
0,
0,
0,
0,
0,
0,
0,
0,
0,
0,
0,
0,
0,
0,
0,
0,
0,
0,
0,
0,
0,
0,
0,
0,
0,
0,
0,
0,
0,
0,
0,
0,
0,
0,
0,
0,
0,
0,
0,
0,
0,
#ENDOFDATA   :