File: N132962/Quantification/20 keV/MMM2/SPI MM2 Pyrope[7][4].msa
#FORMAT      : EMSA/MAS Spectral Data File
#VERSION     : 1.0
#TITLE       : SPI MM2 Pyrope[7][all]
#DATE        : 13-MAR-2025
#TIME        : 12:47
#OWNER       : Unknown
#NPOINTS     : 4096
#NCOLUMNS    : 1
#XUNITS      : eV
#YUNITS      : counts
#DATATYPE    : Y
#XPERCHAN    : 9.99778
#OFFSET      : 1.69135
#BEAMKV      : 20
#SIGNALTYPE  : EDS
#ELEVANGLE   : 35
#AZIMANGLE   : 0
#LIVETIME    : 239.828
#REALTIME    : 255.077
#PROBECUR    : 1.02627
#TAUWIND     : 0
#TDEADLYR    : 0
#TACTLYR     : 0.045
#TALWIND     : 0.025
#CHOFFSET    : 0.0
#XLABEL      : Energy (eV)
#YLABEL      : Counts
#XPOSITION   : 4.59417
#YPOSITION   : 1.53982
#ZPOSITION   : 31.03511
#EDSDET      : SD
##SPECIMEN   : SPI MM2 Pyrope[7][all]
##D2STDCMP   : Pyrope,(O:47.6258),(Mg:18.0873),(Al:13.3861),(Si:20.9007),5.0
##DET_HASH   : 12273538-fd48-a23f-0a19-f1e6fa85caef
##CALIB_HASH : 6abaa72c-aa41-8738-0be9-f592914732f3
##WORKING    : 15.0 mm
##DET_NAME   : EDAX All
##DET_MODE   : MediumLE
#SPECTRUM    :
17,
196,
9330,
6029,
59206,
7139,
2579,
3307,
4401,
94839,
8397,
30869,
40873,
20209,
2717,
2415,
2608,
2438,
2489,
2343,
2395,
2360,
2336,
2281,
2128,
2129,
9472,
4312,
2193,
2901,
1818,
1642,
2535,
1610,
1501,
1617,
1442,
1375,
1855,
2652,
1212,
1185,
1748,
1274,
1108,
3899,
10330,
1092,
850,
957,
1975,
1364,
756,
807,
754,
687,
684,
658,
622,
619,
604,
606,
543,
563,
554,
501,
489,
456,
478,
452,
428,
394,
405,
384,
394,
339,
366,
336,
299,
285,
293,
268,
264,
263,
214,
240,
223,
241,
215,
220,
193,
160,
155,
177,
166,
140,
128,
125,
148,
134,
123,
109,
81,
100,
85,
93,
89,
68,
86,
87,
66,
65,
58,
62,
44,
45,
45,
45,
39,
35,
36,
26,
37,
25,
27,
31,
18,
26,
18,
16,
15,
18,
7,
11,
6,
7,
7,
5,
6,
1,
1,
1,
1,
1,
2,
0,
0,
0,
0,
0,
0,
0,
0,
0,
0,
0,
0,
0,
1,
0,
0,
0,
0,
0,
0,
0,
0,
0,
0,
0,
0,
0,
0,
0,
0,
0,
0,
0,
0,
1,
0,
0,
0,
0,
0,
0,
0,
0,
0,
0,
0,
0,
0,
0,
1,
0,
0,
0,
0,
0,
0,
0,
0,
0,
0,
0,
0,
0,
0,
0,
0,
0,
0,
0,
0,
0,
0,
0,
0,
0,
0,
0,
0,
0,
0,
0,
0,
0,
0,
0,
0,
0,
0,
0,
0,
0,
0,
0,
0,
0,
0,
0,
0,
0,
0,
0,
0,
0,
0,
0,
0,
0,
0,
0,
0,
0,
0,
0,
0,
0,
0,
0,
0,
0,
0,
0,
0,
0,
0,
0,
0,
0,
0,
0,
0,
0,
0,
0,
0,
0,
0,
0,
0,
0,
0,
0,
0,
0,
0,
0,
0,
0,
0,
0,
#ENDOFDATA   :