File: N132962/Quantification/20 keV/MMM2/SPI MM2 Pyrope[4][4].msa
#FORMAT      : EMSA/MAS Spectral Data File
#VERSION     : 1.0
#TITLE       : SPI MM2 Pyrope[4][all]
#DATE        : 13-MAR-2025
#TIME        : 12:44
#OWNER       : Unknown
#NPOINTS     : 4096
#NCOLUMNS    : 1
#XUNITS      : eV
#YUNITS      : counts
#DATATYPE    : Y
#XPERCHAN    : 9.99778
#OFFSET      : 1.69135
#BEAMKV      : 20
#SIGNALTYPE  : EDS
#ELEVANGLE   : 35
#AZIMANGLE   : 0
#LIVETIME    : 240.067
#REALTIME    : 255.4001
#PROBECUR    : 1.02627
#TAUWIND     : 0
#TDEADLYR    : 0
#TACTLYR     : 0.045
#TALWIND     : 0.025
#CHOFFSET    : 0.0
#XLABEL      : Energy (eV)
#YLABEL      : Counts
#XPOSITION   : 4.6516
#YPOSITION   : 1.51224
#ZPOSITION   : 31.03511
#EDSDET      : SD
##SPECIMEN   : SPI MM2 Pyrope[4][all]
##D2STDCMP   : Pyrope,(O:47.6258),(Mg:18.0873),(Al:13.3861),(Si:20.9007),5.0
##DET_HASH   : 12273538-fd48-a23f-0a19-f1e6fa85caef
##CALIB_HASH : 6abaa72c-aa41-8738-0be9-f592914732f3
##WORKING    : 15.0 mm
##DET_NAME   : EDAX All
##DET_MODE   : MediumLE
#SPECTRUM    :
26,
175,
9317,
6014,
58842,
7361,
2518,
3356,
4368,
94651,
8538,
30490,
40916,
19938,
2603,
2448,
2710,
2497,
2508,
2411,
2354,
2390,
2189,
2388,
2128,
2268,
9340,
4311,
2137,
2942,
1702,
1692,
2454,
1576,
1491,
1576,
1325,
1320,
1786,
2600,
1208,
1178,
1686,
1217,
1063,
4010,
10435,
1083,
928,
889,
1939,
1351,
785,
864,
768,
706,
656,
699,
696,
628,
628,
572,
560,
553,
541,
505,
468,
440,
434,
448,
437,
420,
417,
380,
378,
369,
351,
364,
320,
308,
298,
277,
257,
257,
252,
229,
244,
246,
224,
188,
189,
178,
175,
120,
157,
150,
119,
118,
116,
117,
110,
124,
104,
97,
98,
97,
96,
91,
83,
69,
68,
65,
64,
61,
50,
47,
49,
42,
33,
42,
33,
40,
34,
29,
29,
17,
14,
19,
25,
10,
12,
9,
7,
8,
9,
7,
6,
5,
2,
0,
1,
6,
1,
1,
0,
0,
0,
0,
0,
0,
0,
0,
0,
0,
0,
1,
0,
0,
0,
0,
0,
0,
0,
0,
0,
0,
0,
0,
0,
0,
0,
0,
0,
0,
0,
0,
0,
0,
0,
0,
0,
0,
0,
0,
0,
0,
0,
0,
0,
0,
0,
0,
0,
0,
0,
0,
0,
0,
0,
0,
0,
0,
0,
0,
0,
0,
0,
0,
0,
0,
0,
0,
0,
0,
0,
0,
0,
0,
0,
0,
0,
0,
0,
0,
0,
0,
0,
0,
0,
0,
0,
0,
0,
0,
0,
0,
0,
0,
0,
0,
0,
0,
0,
0,
0,
0,
0,
0,
0,
0,
0,
0,
0,
0,
0,
0,
0,
0,
0,
0,
0,
0,
0,
0,
0,
0,
0,
0,
0,
0,
0,
0,
0,
0,
0,
0,
0,
0,
0,
0,
0,
0,
0,
0,
0,
0,
0,
0,
0,
0,
0,
0,
0,
0,
#ENDOFDATA   :