File: N132962/Quantification/20 keV/MMM2/SPI MM2 MgAl2O4[1][4].msa
#FORMAT      : EMSA/MAS Spectral Data File
#VERSION     : 1.0
#TITLE       : SPI MM2 MgAl2O4[1][all]
#DATE        : 13-MAR-2025
#TIME        : 09:28
#OWNER       : Unknown
#NPOINTS     : 4096
#NCOLUMNS    : 1
#XUNITS      : eV
#YUNITS      : counts
#DATATYPE    : Y
#XPERCHAN    : 9.99778
#OFFSET      : 1.69135
#BEAMKV      : 20
#SIGNALTYPE  : EDS
#ELEVANGLE   : 35
#AZIMANGLE   : 0
#LIVETIME    : 239.811
#REALTIME    : 256.358
#PROBECUR    : 1.02582
#TAUWIND     : 0
#TDEADLYR    : 0
#TACTLYR     : 0.045
#TALWIND     : 0.025
#CHOFFSET    : 0.0
#XLABEL      : Energy (eV)
#YLABEL      : Counts
#XPOSITION   : 0.75806
#YPOSITION   : -5.35274
#ZPOSITION   : 31.03509
#EDSDET      : SD
##SPECIMEN   : SPI MM2 MgAl2O4[1][all]
##D2STDCMP   : MgAl2O4,(O:44.9839),(Mg:17.0844),(Al:37.9316)
##DET_HASH   : 12273538-fd48-a23f-0a19-f1e6fa85caef
##CALIB_HASH : 6abaa72c-aa41-8738-0be9-f592914732f3
##WORKING    : 15.0 mm
##DET_NAME   : EDAX All
##DET_MODE   : MediumLE
#SPECTRUM    :
40,
197,
8139,
6570,
70178,
2121,
2809,
3669,
5344,
151839,
19692,
91637,
2083,
2435,
2482,
2184,
2109,
2158,
2348,
2281,
2305,
2387,
2017,
1917,
1810,
1791,
1721,
1642,
1622,
1570,
1460,
1516,
1402,
1365,
1321,
1219,
1255,
1167,
1160,
1103,
1045,
1006,
961,
981,
885,
924,
1029,
845,
767,
743,
751,
712,
657,
722,
621,
634,
589,
569,
570,
560,
561,
556,
506,
456,
509,
442,
410,
420,
393,
380,
397,
359,
360,
341,
323,
307,
295,
257,
266,
268,
276,
267,
227,
223,
232,
180,
205,
201,
180,
165,
179,
155,
157,
143,
122,
134,
110,
98,
138,
109,
85,
97,
71,
86,
68,
81,
66,
75,
65,
60,
61,
62,
52,
33,
41,
49,
31,
34,
40,
39,
27,
19,
22,
16,
22,
20,
19,
15,
13,
14,
6,
6,
6,
10,
8,
6,
2,
4,
4,
3,
0,
3,
0,
1,
0,
1,
0,
0,
0,
0,
0,
0,
1,
0,
0,
0,
0,
0,
0,
0,
0,
0,
0,
0,
0,
0,
0,
0,
0,
0,
0,
0,
0,
0,
0,
0,
0,
0,
0,
0,
0,
0,
0,
0,
0,
0,
0,
0,
0,
0,
0,
0,
0,
0,
0,
0,
0,
0,
0,
0,
0,
0,
0,
0,
0,
0,
0,
0,
0,
0,
0,
0,
0,
0,
0,
0,
0,
0,
0,
0,
0,
0,
0,
0,
0,
0,
0,
0,
0,
0,
0,
0,
0,
0,
0,
0,
0,
0,
0,
0,
0,
0,
0,
0,
0,
0,
0,
0,
0,
0,
0,
0,
0,
0,
0,
0,
0,
0,
0,
0,
0,
0,
0,
0,
0,
0,
0,
0,
0,
0,
0,
0,
0,
0,
0,
0,
0,
0,
0,
0,
0,
0,
0,
0,
0,
0,
0,
0,
0,
0,
0,
0,
0,
0,
#ENDOFDATA   :