File: N132962/Quantification/20 keV/MMM2/SPI MM2 SPI Phlogpite[6][4].msa
#FORMAT      : EMSA/MAS Spectral Data File
#VERSION     : 1.0
#TITLE       : SPI MM2 SPI Phlogpite[6][all]
#DATE        : 13-MAR-2025
#TIME        : 10:48
#OWNER       : Unknown
#NPOINTS     : 4096
#NCOLUMNS    : 1
#XUNITS      : eV
#YUNITS      : counts
#DATATYPE    : Y
#XPERCHAN    : 9.99778
#OFFSET      : 1.69135
#BEAMKV      : 20
#SIGNALTYPE  : EDS
#ELEVANGLE   : 35
#AZIMANGLE   : 0
#LIVETIME    : 239.787
#REALTIME    : 254.641
#PROBECUR    : 1.02606
#TAUWIND     : 0
#TDEADLYR    : 0
#TACTLYR     : 0.045
#TALWIND     : 0.025
#CHOFFSET    : 0.0
#XLABEL      : Energy (eV)
#YLABEL      : Counts
#XPOSITION   : 1.44959
#YPOSITION   : -0.58126
#ZPOSITION   : 31.0351
#EDSDET      : SD
##SPECIMEN   : SPI MM2 SPI Phlogpite[6][all]
##D2STDCMP   : SPI Phlogpite,(H:0.48),(O:46.01),(Mg:17.47),(Al:6.47),(Si:20.19),(K:9.37)
##DET_HASH   : 12273538-fd48-a23f-0a19-f1e6fa85caef
##CALIB_HASH : 6abaa72c-aa41-8738-0be9-f592914732f3
##WORKING    : 15.0 mm
##DET_NAME   : EDAX All
##DET_MODE   : MediumLE
#SPECTRUM    :
20,
177,
10113,
5403,
50937,
7368,
2746,
4092,
4711,
108953,
6323,
19480,
40495,
19733,
2458,
2542,
2709,
2445,
2530,
2424,
2407,
2506,
2291,
6586,
24533,
2922,
4368,
1838,
1765,
1696,
1580,
1633,
2656,
1597,
1569,
1661,
1449,
1380,
1294,
1294,
1216,
1132,
1331,
1115,
1036,
3104,
8035,
1031,
959,
925,
1667,
1253,
799,
841,
777,
704,
698,
656,
660,
617,
594,
591,
507,
562,
528,
542,
453,
439,
462,
441,
432,
414,
421,
320,
348,
370,
327,
307,
298,
284,
278,
292,
250,
265,
232,
231,
231,
204,
234,
206,
186,
181,
201,
167,
141,
161,
133,
157,
126,
112,
110,
114,
101,
89,
93,
72,
80,
79,
70,
72,
52,
53,
73,
62,
43,
53,
41,
34,
34,
38,
38,
31,
24,
27,
22,
23,
22,
21,
19,
17,
22,
15,
9,
10,
9,
6,
6,
4,
5,
4,
1,
0,
1,
2,
0,
0,
0,
0,
0,
0,
0,
0,
0,
0,
0,
0,
0,
0,
0,
0,
0,
0,
0,
0,
0,
0,
0,
0,
0,
0,
0,
0,
0,
0,
0,
0,
0,
0,
0,
0,
0,
0,
0,
0,
0,
0,
0,
0,
0,
0,
0,
0,
0,
0,
0,
0,
0,
0,
0,
0,
0,
0,
0,
0,
0,
0,
0,
0,
0,
0,
0,
0,
0,
0,
0,
0,
0,
0,
0,
0,
0,
0,
0,
0,
0,
0,
0,
0,
0,
0,
0,
0,
0,
0,
0,
0,
0,
0,
0,
0,
0,
0,
0,
0,
0,
0,
0,
0,
0,
0,
0,
0,
0,
0,
0,
0,
0,
0,
0,
0,
0,
0,
0,
0,
0,
0,
0,
0,
0,
0,
0,
0,
0,
0,
0,
0,
0,
0,
0,
0,
0,
0,
0,
0,
0,
0,
0,
0,
0,
0,
0,
0,
0,
0,
#ENDOFDATA   :