File: N132962/Quantification/20 keV/MMM2/SPI MM2 Wollastonite[7][4].msa
#FORMAT      : EMSA/MAS Spectral Data File
#VERSION     : 1.0
#TITLE       : SPI MM2 Wollastonite[7][all]
#DATE        : 13-MAR-2025
#TIME        : 14:01
#OWNER       : Unknown
#NPOINTS     : 4096
#NCOLUMNS    : 1
#XUNITS      : eV
#YUNITS      : counts
#DATATYPE    : Y
#XPERCHAN    : 9.99778
#OFFSET      : 1.69135
#BEAMKV      : 20
#SIGNALTYPE  : EDS
#ELEVANGLE   : 35
#AZIMANGLE   : 0
#LIVETIME    : 239.81
#REALTIME    : 256.108
#PROBECUR    : 1.0264
#TAUWIND     : 0
#TDEADLYR    : 0
#TACTLYR     : 0.045
#TALWIND     : 0.025
#CHOFFSET    : 0.0
#XLABEL      : Energy (eV)
#YLABEL      : Counts
#XPOSITION   : -0.01652
#YPOSITION   : 6.28295
#ZPOSITION   : 31.03511
#EDSDET      : SD
##SPECIMEN   : SPI MM2 Wollastonite[7][all]
##DET_HASH   : 12273538-fd48-a23f-0a19-f1e6fa85caef
##CALIB_HASH : 6abaa72c-aa41-8738-0be9-f592914732f3
##WORKING    : 15.0 mm
##DET_NAME   : EDAX All
##DET_MODE   : MediumLE
#SPECTRUM    :
28,
185,
14001,
3085,
24051,
2063,
2656,
3067,
3728,
4339,
4833,
5601,
65546,
31336,
4897,
3168,
3435,
2987,
2967,
2992,
2919,
2858,
2853,
2660,
2538,
3624,
86842,
29294,
5715,
14733,
1832,
1561,
1609,
1577,
1586,
1469,
1439,
1404,
1395,
1764,
1309,
1261,
1336,
1176,
1139,
1201,
1245,
1087,
1075,
952,
986,
952,
889,
982,
868,
864,
780,
776,
695,
749,
696,
704,
635,
643,
615,
583,
533,
565,
524,
517,
539,
490,
479,
457,
476,
426,
422,
372,
361,
389,
354,
330,
301,
313,
283,
302,
269,
269,
293,
234,
258,
224,
198,
205,
229,
192,
178,
184,
159,
158,
154,
135,
127,
121,
123,
104,
97,
98,
84,
80,
97,
65,
71,
68,
68,
63,
70,
50,
46,
37,
33,
37,
30,
34,
28,
34,
23,
17,
17,
17,
23,
14,
22,
16,
11,
5,
7,
6,
6,
4,
6,
0,
1,
1,
0,
1,
0,
0,
0,
1,
0,
1,
0,
0,
1,
1,
0,
0,
0,
0,
0,
0,
0,
0,
0,
0,
0,
0,
0,
0,
0,
0,
0,
0,
0,
0,
0,
0,
0,
0,
0,
0,
0,
0,
0,
0,
0,
0,
0,
0,
0,
0,
0,
0,
0,
0,
0,
0,
0,
0,
0,
0,
0,
0,
0,
0,
0,
0,
0,
0,
0,
0,
0,
0,
0,
0,
0,
0,
0,
0,
0,
0,
0,
0,
0,
0,
0,
0,
0,
0,
0,
0,
0,
0,
0,
0,
0,
0,
0,
0,
0,
0,
0,
0,
0,
0,
0,
0,
0,
0,
0,
0,
0,
0,
0,
0,
0,
0,
0,
0,
0,
0,
0,
0,
0,
0,
0,
0,
0,
0,
0,
0,
0,
0,
0,
0,
0,
0,
0,
0,
0,
0,
0,
0,
0,
0,
0,
0,
0,
0,
0,
0,
0,
0,
#ENDOFDATA   :