File: N132962/Quantification/20 keV/MMM2/SPI MM2 Zircon[2][4].msa
#FORMAT      : EMSA/MAS Spectral Data File
#VERSION     : 1.0
#TITLE       : SPI MM2 Zircon[2][all]
#DATE        : 13-MAR-2025
#TIME        : 13:46
#OWNER       : Unknown
#NPOINTS     : 4096
#NCOLUMNS    : 1
#XUNITS      : eV
#YUNITS      : counts
#DATATYPE    : Y
#XPERCHAN    : 9.99778
#OFFSET      : 1.69135
#BEAMKV      : 20
#SIGNALTYPE  : EDS
#ELEVANGLE   : 35
#AZIMANGLE   : 0
#LIVETIME    : 239.859
#REALTIME    : 257.446
#PROBECUR    : 1.0264
#TAUWIND     : 0
#TDEADLYR    : 0
#TACTLYR     : 0.045
#TALWIND     : 0.025
#CHOFFSET    : 0.0
#XLABEL      : Energy (eV)
#YLABEL      : Counts
#XPOSITION   : -2.66698
#YPOSITION   : 6.7537
#ZPOSITION   : 31.03511
#EDSDET      : SD
##SPECIMEN   : SPI MM2 Zircon[2][all]
##DET_HASH   : 12273538-fd48-a23f-0a19-f1e6fa85caef
##CALIB_HASH : 6abaa72c-aa41-8738-0be9-f592914732f3
##WORKING    : 15.0 mm
##DET_NAME   : EDAX All
##DET_MODE   : MediumLE
#SPECTRUM    :
23,
738,
14738,
4548,
25537,
3377,
4401,
4687,
5617,
6381,
7118,
7801,
51017,
32405,
27628,
102477,
12451,
3339,
4120,
3267,
3056,
3165,
3139,
3141,
3126,
3160,
2962,
3259,
3180,
3046,
2909,
2772,
2738,
2679,
2574,
2546,
2502,
2515,
2332,
2336,
2179,
2197,
2111,
2017,
2043,
2025,
2024,
1845,
1797,
1748,
1663,
1645,
1512,
1618,
1464,
1458,
1699,
1487,
1320,
1271,
1262,
1231,
1171,
1139,
1209,
1102,
1132,
1050,
979,
973,
929,
880,
830,
878,
820,
776,
766,
762,
748,
671,
692,
650,
642,
590,
574,
509,
541,
500,
491,
452,
422,
421,
412,
399,
381,
368,
360,
331,
328,
299,
289,
274,
262,
231,
234,
239,
233,
160,
167,
180,
171,
199,
481,
428,
153,
115,
130,
115,
91,
97,
99,
85,
66,
70,
61,
85,
106,
76,
58,
40,
39,
34,
26,
21,
30,
16,
16,
12,
13,
5,
7,
5,
2,
0,
1,
1,
1,
2,
1,
0,
0,
0,
0,
0,
1,
1,
0,
0,
0,
0,
0,
0,
0,
0,
0,
1,
0,
1,
0,
0,
0,
0,
0,
0,
0,
0,
1,
0,
0,
0,
0,
0,
1,
0,
1,
0,
0,
0,
1,
0,
0,
0,
0,
0,
0,
0,
0,
0,
0,
0,
0,
0,
0,
0,
0,
0,
0,
0,
0,
0,
0,
0,
0,
0,
0,
0,
0,
0,
0,
0,
0,
0,
0,
0,
0,
0,
0,
0,
0,
0,
0,
0,
0,
0,
0,
0,
0,
0,
0,
0,
0,
0,
0,
0,
0,
0,
0,
0,
0,
0,
0,
0,
0,
0,
0,
0,
0,
0,
0,
0,
0,
0,
0,
0,
0,
0,
0,
0,
0,
0,
0,
0,
0,
0,
0,
0,
0,
0,
0,
0,
0,
0,
0,
0,
0,
0,
0,
0,
0,
0,
0,
0,
0,
0,
#ENDOFDATA   :