File: N132962/Quantification/20 keV/MMM2/SPI MM2 Sphene[4][4].msa
#FORMAT      : EMSA/MAS Spectral Data File
#VERSION     : 1.0
#TITLE       : SPI MM2 Sphene[4][all]
#DATE        : 13-MAR-2025
#TIME        : 13:02
#OWNER       : Unknown
#NPOINTS     : 4096
#NCOLUMNS    : 1
#XUNITS      : eV
#YUNITS      : counts
#DATATYPE    : Y
#XPERCHAN    : 9.99778
#OFFSET      : 1.69135
#BEAMKV      : 20
#SIGNALTYPE  : EDS
#ELEVANGLE   : 35
#AZIMANGLE   : 0
#LIVETIME    : 239.841
#REALTIME    : 254.833
#PROBECUR    : 1.02627
#TAUWIND     : 0
#TDEADLYR    : 0
#TACTLYR     : 0.045
#TALWIND     : 0.025
#CHOFFSET    : 0.0
#XLABEL      : Energy (eV)
#YLABEL      : Counts
#XPOSITION   : 6.06198
#YPOSITION   : 3.74089
#ZPOSITION   : 31.03511
#EDSDET      : SD
##SPECIMEN   : SPI MM2 Sphene[4][all]
##DET_HASH   : 12273538-fd48-a23f-0a19-f1e6fa85caef
##CALIB_HASH : 6abaa72c-aa41-8738-0be9-f592914732f3
##WORKING    : 15.0 mm
##DET_NAME   : EDAX All
##DET_MODE   : MediumLE
#SPECTRUM    :
23,
213,
13490,
7769,
21675,
2526,
2408,
2923,
3480,
4125,
4717,
6926,
38699,
19397,
4776,
3748,
4075,
3447,
3194,
3207,
3336,
3056,
2946,
3002,
2711,
3254,
55774,
19427,
4592,
10260,
2059,
2516,
62260,
8212,
2010,
9667,
2838,
1442,
1437,
1619,
1343,
1319,
1332,
1324,
1274,
1425,
1726,
1085,
1133,
1020,
1080,
1047,
949,
991,
873,
828,
822,
797,
813,
848,
701,
731,
702,
656,
653,
631,
599,
631,
579,
577,
560,
522,
457,
476,
467,
504,
437,
414,
414,
366,
313,
359,
338,
343,
341,
310,
314,
266,
269,
253,
237,
243,
228,
217,
183,
197,
192,
176,
173,
171,
130,
136,
119,
134,
106,
116,
105,
121,
94,
78,
90,
72,
81,
71,
64,
67,
54,
72,
67,
46,
52,
51,
51,
34,
33,
26,
29,
27,
16,
21,
12,
11,
15,
14,
10,
14,
8,
2,
9,
9,
2,
1,
2,
0,
0,
1,
0,
1,
2,
0,
0,
0,
0,
0,
0,
0,
0,
0,
0,
0,
0,
0,
0,
0,
0,
0,
0,
0,
0,
0,
0,
0,
0,
0,
0,
0,
1,
0,
0,
0,
0,
0,
0,
0,
0,
0,
0,
0,
0,
0,
0,
0,
0,
0,
0,
0,
0,
1,
0,
0,
0,
0,
0,
0,
0,
0,
0,
0,
0,
0,
0,
0,
0,
0,
0,
0,
0,
0,
0,
0,
0,
0,
0,
0,
0,
0,
0,
0,
0,
0,
0,
0,
0,
0,
0,
0,
0,
0,
0,
0,
0,
0,
0,
0,
0,
0,
0,
0,
0,
0,
0,
0,
0,
0,
0,
0,
0,
0,
0,
0,
0,
0,
0,
0,
0,
0,
0,
0,
0,
0,
0,
0,
0,
0,
0,
0,
0,
0,
0,
0,
0,
0,
0,
0,
0,
0,
0,
0,
0,
0,
0,
0,
0,
0,
#ENDOFDATA   :