File: N132962/Quantification/20 keV/MMM2/SPI MM2 Tugtupite[0][4].msa
#FORMAT      : EMSA/MAS Spectral Data File
#VERSION     : 1.0
#TITLE       : SPI MM2 Tugtupite[0][all]
#DATE        : 13-MAR-2025
#TIME        : 13:35
#OWNER       : Unknown
#NPOINTS     : 4096
#NCOLUMNS    : 1
#XUNITS      : eV
#YUNITS      : counts
#DATATYPE    : Y
#XPERCHAN    : 9.99778
#OFFSET      : 1.69135
#BEAMKV      : 20
#SIGNALTYPE  : EDS
#ELEVANGLE   : 35
#AZIMANGLE   : 0
#LIVETIME    : 239.833
#REALTIME    : 255.347
#PROBECUR    : 1.0263
#TAUWIND     : 0
#TDEADLYR    : 0
#TACTLYR     : 0.045
#TALWIND     : 0.025
#CHOFFSET    : 0.0
#XLABEL      : Energy (eV)
#YLABEL      : Counts
#XPOSITION   : -4.47319
#YPOSITION   : 3.53563
#ZPOSITION   : 31.03511
#EDSDET      : SD
##SPECIMEN   : SPI MM2 Tugtupite[0][all]
##DET_HASH   : 12273538-fd48-a23f-0a19-f1e6fa85caef
##CALIB_HASH : 6abaa72c-aa41-8738-0be9-f592914732f3
##WORKING    : 15.0 mm
##DET_NAME   : EDAX All
##DET_MODE   : MediumLE
#SPECTRUM    :
23,
210,
8335,
5269,
50725,
2356,
3737,
30045,
8843,
3141,
6119,
18464,
55665,
26422,
2295,
2349,
2796,
2299,
5217,
29740,
6026,
2119,
2037,
2043,
1936,
2045,
1768,
1670,
1710,
1565,
1557,
1498,
1494,
1436,
1359,
1276,
1232,
1178,
1186,
1155,
1131,
1076,
1038,
1025,
946,
944,
1016,
870,
820,
831,
798,
747,
720,
712,
678,
696,
617,
596,
587,
585,
539,
570,
484,
498,
442,
454,
446,
396,
396,
390,
382,
407,
365,
353,
385,
329,
308,
252,
310,
256,
272,
240,
238,
255,
233,
221,
218,
190,
196,
191,
187,
178,
158,
139,
142,
140,
130,
125,
125,
105,
108,
98,
71,
81,
92,
80,
74,
53,
76,
61,
63,
57,
51,
50,
39,
34,
48,
30,
32,
33,
38,
24,
24,
20,
25,
22,
25,
11,
4,
17,
12,
12,
5,
12,
15,
10,
3,
4,
4,
1,
0,
0,
1,
0,
0,
0,
0,
0,
0,
0,
0,
1,
0,
0,
0,
0,
0,
0,
0,
0,
0,
0,
0,
0,
0,
0,
0,
0,
0,
0,
0,
0,
0,
0,
0,
0,
0,
0,
0,
0,
0,
0,
0,
0,
0,
0,
0,
0,
1,
0,
0,
0,
0,
0,
0,
0,
0,
0,
0,
0,
0,
0,
0,
0,
0,
0,
0,
0,
0,
0,
0,
0,
0,
0,
0,
0,
0,
0,
0,
0,
0,
0,
0,
0,
0,
0,
0,
0,
0,
0,
0,
0,
0,
0,
0,
0,
0,
0,
0,
0,
0,
0,
0,
0,
0,
0,
0,
0,
0,
0,
0,
0,
0,
0,
0,
0,
0,
0,
0,
0,
0,
0,
0,
0,
0,
0,
0,
0,
0,
0,
0,
0,
0,
0,
0,
0,
0,
0,
0,
0,
0,
0,
0,
0,
0,
0,
0,
0,
0,
0,
0,
0,
0,
0,
#ENDOFDATA   :