File: N132962/Quantification/20 keV/MMM2/SPI MM2 SPI Pentlandite[0][4].msa
#FORMAT      : EMSA/MAS Spectral Data File
#VERSION     : 1.0
#TITLE       : SPI MM2 SPI Pentlandite[0][all]
#DATE        : 13-MAR-2025
#TIME        : 10:32
#OWNER       : Unknown
#NPOINTS     : 4096
#NCOLUMNS    : 1
#XUNITS      : eV
#YUNITS      : counts
#DATATYPE    : Y
#XPERCHAN    : 9.99778
#OFFSET      : 1.69135
#BEAMKV      : 20
#SIGNALTYPE  : EDS
#ELEVANGLE   : 35
#AZIMANGLE   : 0
#LIVETIME    : 240
#REALTIME    : 260.324
#PROBECUR    : 1.02606
#TAUWIND     : 0
#TDEADLYR    : 0
#TACTLYR     : 0.045
#TALWIND     : 0.025
#CHOFFSET    : 0.0
#XLABEL      : Energy (eV)
#YLABEL      : Counts
#XPOSITION   : 3.92101
#YPOSITION   : -0.32118
#ZPOSITION   : 31.0351
#EDSDET      : SD
##SPECIMEN   : SPI MM2 SPI Pentlandite[0][all]
##D2STDCMP   : SPI Pentlandite,(S:32.89),(Fe:30.88),(Co:0.43),(Ni:35.61)
##DET_HASH   : 12273538-fd48-a23f-0a19-f1e6fa85caef
##CALIB_HASH : 6abaa72c-aa41-8738-0be9-f592914732f3
##WORKING    : 15.0 mm
##DET_NAME   : EDAX All
##DET_MODE   : MediumLE
#SPECTRUM    :
27,
446,
11734,
3288,
13499,
50437,
63545,
3492,
3480,
4245,
4869,
5044,
5572,
5888,
5522,
5767,
62756,
48938,
10554,
3917,
3796,
3720,
3862,
3823,
3634,
3623,
3457,
3450,
3356,
3254,
3127,
3032,
3084,
3405,
2961,
2727,
2677,
2600,
2679,
2556,
2422,
2432,
2212,
2301,
2360,
17140,
50459,
2507,
1946,
2496,
7791,
4660,
2206,
35340,
17555,
1657,
1410,
1427,
2146,
7353,
1892,
1177,
1216,
1149,
1093,
1073,
1100,
1008,
971,
928,
1011,
916,
880,
834,
792,
814,
803,
738,
670,
670,
652,
630,
635,
574,
563,
577,
546,
518,
517,
470,
484,
450,
432,
402,
392,
373,
371,
317,
321,
357,
316,
301,
279,
256,
228,
238,
211,
244,
206,
169,
181,
161,
166,
153,
141,
114,
107,
106,
105,
95,
76,
91,
92,
85,
62,
60,
51,
60,
56,
37,
56,
42,
31,
28,
28,
29,
23,
16,
13,
10,
8,
4,
4,
0,
2,
2,
1,
1,
1,
1,
3,
2,
0,
2,
0,
0,
0,
1,
2,
2,
1,
2,
0,
0,
1,
1,
1,
0,
0,
2,
1,
0,
1,
0,
0,
0,
0,
0,
0,
1,
0,
1,
1,
1,
0,
0,
0,
0,
1,
0,
0,
1,
0,
0,
0,
0,
0,
0,
0,
0,
0,
0,
0,
0,
0,
0,
1,
0,
0,
0,
0,
0,
1,
0,
0,
0,
0,
0,
0,
0,
0,
1,
0,
0,
0,
0,
0,
0,
0,
0,
0,
0,
0,
0,
0,
0,
0,
0,
0,
0,
0,
0,
0,
0,
0,
0,
0,
0,
0,
0,
0,
0,
0,
0,
0,
0,
0,
0,
0,
0,
0,
0,
0,
0,
0,
0,
0,
0,
0,
0,
0,
0,
0,
0,
0,
0,
0,
0,
0,
0,
0,
0,
0,
0,
0,
0,
0,
0,
0,
0,
0,
0,
0,
0,
#ENDOFDATA   :