File: N132962/Quantification/20 keV/MMM2/SPI MM2 SPI Pentlandite[1][4].msa
#FORMAT      : EMSA/MAS Spectral Data File
#VERSION     : 1.0
#TITLE       : SPI MM2 SPI Pentlandite[1][all]
#DATE        : 13-MAR-2025
#TIME        : 10:33
#OWNER       : Unknown
#NPOINTS     : 4096
#NCOLUMNS    : 1
#XUNITS      : eV
#YUNITS      : counts
#DATATYPE    : Y
#XPERCHAN    : 9.99778
#OFFSET      : 1.69135
#BEAMKV      : 20
#SIGNALTYPE  : EDS
#ELEVANGLE   : 35
#AZIMANGLE   : 0
#LIVETIME    : 239.895
#REALTIME    : 260.204
#PROBECUR    : 1.02606
#TAUWIND     : 0
#TDEADLYR    : 0
#TACTLYR     : 0.045
#TALWIND     : 0.025
#CHOFFSET    : 0.0
#XLABEL      : Energy (eV)
#YLABEL      : Counts
#XPOSITION   : 3.92462
#YPOSITION   : -0.26056
#ZPOSITION   : 31.0351
#EDSDET      : SD
##SPECIMEN   : SPI MM2 SPI Pentlandite[1][all]
##D2STDCMP   : SPI Pentlandite,(S:32.89),(Fe:30.88),(Co:0.43),(Ni:35.61)
##DET_HASH   : 12273538-fd48-a23f-0a19-f1e6fa85caef
##CALIB_HASH : 6abaa72c-aa41-8738-0be9-f592914732f3
##WORKING    : 15.0 mm
##DET_NAME   : EDAX All
##DET_MODE   : MediumLE
#SPECTRUM    :
15,
456,
11776,
3249,
13386,
50595,
63379,
3358,
3527,
3939,
4720,
5206,
5472,
5934,
5309,
5823,
62146,
49733,
10351,
3708,
3847,
3740,
3832,
3789,
3554,
3529,
3511,
3429,
3358,
3358,
3302,
3166,
3062,
3401,
2845,
2830,
2727,
2622,
2690,
2523,
2447,
2571,
2252,
2271,
2389,
17208,
50387,
2539,
2074,
2576,
7761,
4743,
2140,
35123,
17486,
1629,
1450,
1473,
2069,
7323,
1864,
1168,
1262,
1153,
1069,
1037,
1034,
989,
941,
1038,
1073,
913,
853,
796,
809,
788,
765,
773,
702,
688,
694,
636,
614,
609,
628,
589,
532,
517,
519,
469,
494,
444,
435,
419,
395,
379,
407,
342,
330,
356,
301,
325,
258,
243,
246,
232,
210,
233,
181,
174,
166,
153,
146,
167,
135,
136,
127,
126,
112,
94,
91,
68,
77,
71,
75,
61,
63,
51,
54,
46,
39,
40,
44,
31,
23,
20,
23,
10,
12,
12,
14,
8,
4,
3,
2,
0,
1,
2,
0,
0,
2,
0,
0,
1,
1,
2,
1,
2,
0,
0,
1,
1,
0,
1,
1,
0,
0,
0,
0,
0,
0,
0,
0,
0,
1,
0,
0,
0,
0,
1,
0,
0,
0,
0,
0,
0,
0,
0,
0,
0,
0,
1,
0,
0,
0,
0,
0,
0,
0,
0,
0,
0,
0,
0,
0,
0,
0,
1,
0,
0,
0,
0,
0,
0,
0,
0,
0,
0,
0,
0,
0,
0,
0,
0,
0,
0,
0,
0,
0,
0,
0,
0,
0,
0,
0,
0,
0,
0,
0,
0,
0,
0,
0,
0,
0,
0,
0,
0,
0,
0,
0,
0,
0,
0,
0,
0,
0,
0,
0,
0,
0,
0,
0,
0,
0,
0,
0,
0,
0,
0,
0,
0,
0,
0,
0,
0,
0,
0,
0,
0,
0,
0,
0,
0,
0,
0,
0,
0,
0,
0,
0,
0,
0,
0,
#ENDOFDATA   :