File: N132962/Quantification/20 keV/MMM2/SPI MM2 Uvarovite[2][4].msa
#FORMAT      : EMSA/MAS Spectral Data File
#VERSION     : 1.0
#TITLE       : SPI MM2 Uvarovite[2][all]
#DATE        : 13-MAR-2025
#TIME        : 14:14
#OWNER       : Unknown
#NPOINTS     : 4096
#NCOLUMNS    : 1
#XUNITS      : eV
#YUNITS      : counts
#DATATYPE    : Y
#XPERCHAN    : 9.99778
#OFFSET      : 1.69135
#BEAMKV      : 20
#SIGNALTYPE  : EDS
#ELEVANGLE   : 35
#AZIMANGLE   : 0
#LIVETIME    : 239.791
#REALTIME    : 255.281
#PROBECUR    : 1.02609
#TAUWIND     : 0
#TDEADLYR    : 0
#TACTLYR     : 0.045
#TALWIND     : 0.025
#CHOFFSET    : 0.0
#XLABEL      : Energy (eV)
#YLABEL      : Counts
#XPOSITION   : 5.73304
#YPOSITION   : 6.43756
#ZPOSITION   : 31.03511
#EDSDET      : SD
##SPECIMEN   : SPI MM2 Uvarovite[2][all]
##DET_HASH   : 12273538-fd48-a23f-0a19-f1e6fa85caef
##CALIB_HASH : 6abaa72c-aa41-8738-0be9-f592914732f3
##WORKING    : 15.0 mm
##DET_NAME   : EDAX All
##DET_MODE   : MediumLE
#SPECTRUM    :
24,
171,
13484,
4105,
32136,
2707,
2521,
3046,
3603,
4425,
6029,
13100,
43775,
21493,
4419,
3372,
3562,
3329,
3206,
3217,
3088,
2976,
2971,
2922,
2709,
3205,
63910,
22202,
4991,
11538,
1947,
1791,
4358,
1928,
1684,
2281,
1680,
1681,
8953,
22501,
1513,
1435,
3442,
2931,
1180,
1517,
2430,
1140,
1043,
1027,
1113,
1080,
1014,
910,
905,
877,
834,
750,
808,
749,
765,
717,
668,
651,
637,
638,
541,
612,
579,
579,
530,
489,
497,
472,
477,
413,
444,
444,
434,
352,
368,
364,
350,
333,
320,
320,
263,
277,
262,
224,
237,
232,
219,
216,
226,
190,
196,
182,
156,
144,
145,
173,
139,
125,
123,
134,
106,
99,
100,
87,
80,
88,
83,
74,
56,
72,
58,
72,
53,
59,
40,
40,
30,
38,
30,
19,
33,
31,
13,
31,
22,
13,
16,
17,
15,
11,
11,
4,
5,
4,
1,
2,
2,
0,
0,
0,
0,
0,
1,
2,
0,
0,
0,
0,
1,
0,
1,
1,
0,
0,
1,
0,
0,
0,
0,
0,
0,
0,
0,
0,
0,
0,
0,
0,
0,
0,
0,
0,
0,
0,
0,
0,
0,
0,
0,
0,
0,
0,
0,
0,
0,
0,
0,
0,
0,
0,
0,
0,
0,
1,
0,
0,
0,
1,
0,
0,
0,
0,
0,
0,
0,
0,
0,
0,
0,
0,
0,
0,
0,
0,
0,
0,
0,
0,
0,
0,
0,
0,
0,
0,
0,
0,
0,
0,
0,
0,
0,
0,
0,
0,
0,
0,
0,
0,
0,
0,
0,
0,
0,
0,
0,
0,
0,
0,
0,
0,
0,
0,
0,
0,
0,
0,
0,
0,
0,
0,
0,
0,
0,
0,
0,
0,
0,
0,
0,
0,
0,
0,
0,
0,
0,
0,
0,
0,
0,
0,
0,
0,
0,
0,
0,
0,
0,
0,
#ENDOFDATA   :