File: N132962/Quantification/20 keV/MMM2/SPI MM2 SPI Olivine[4][4].msa
#FORMAT      : EMSA/MAS Spectral Data File
#VERSION     : 1.0
#TITLE       : SPI MM2 SPI Olivine[4][all]
#DATE        : 13-MAR-2025
#TIME        : 09:50
#OWNER       : Unknown
#NPOINTS     : 4096
#NCOLUMNS    : 1
#XUNITS      : eV
#YUNITS      : counts
#DATATYPE    : Y
#XPERCHAN    : 9.99778
#OFFSET      : 1.69135
#BEAMKV      : 20
#SIGNALTYPE  : EDS
#ELEVANGLE   : 35
#AZIMANGLE   : 0
#LIVETIME    : 239.764
#REALTIME    : 255.92
#PROBECUR    : 1.02627
#TAUWIND     : 0
#TDEADLYR    : 0
#TACTLYR     : 0.045
#TALWIND     : 0.025
#CHOFFSET    : 0.0
#XLABEL      : Energy (eV)
#YLABEL      : Counts
#XPOSITION   : -3.14696
#YPOSITION   : -2.12472
#ZPOSITION   : 31.03509
#EDSDET      : SD
##SPECIMEN   : SPI MM2 SPI Olivine[4][all]
##D2STDCMP   : SPI Olivine,(O:43.96),(Mg:30.26),(Si:19.14),(Mn:0.089),(Fe:6.35),(Ni:0.278),5.0
##DET_HASH   : 12273538-fd48-a23f-0a19-f1e6fa85caef
##CALIB_HASH : 6abaa72c-aa41-8738-0be9-f592914732f3
##WORKING    : 15.0 mm
##DET_NAME   : EDAX All
##DET_MODE   : MediumLE
#SPECTRUM    :
26,
212,
8364,
6859,
68355,
7314,
3252,
3545,
5808,
241025,
2845,
3375,
39543,
19522,
2178,
2326,
2687,
2371,
2744,
2349,
2283,
2420,
2273,
2170,
2002,
2071,
1902,
1780,
1762,
1695,
1659,
1606,
1586,
1485,
1406,
1380,
1346,
1326,
1290,
1203,
1197,
1081,
1307,
1103,
1033,
3633,
9370,
1012,
845,
988,
1776,
1260,
763,
999,
870,
696,
641,
611,
631,
643,
626,
563,
533,
512,
473,
528,
465,
459,
425,
426,
401,
412,
397,
386,
367,
321,
311,
295,
330,
290,
289,
308,
258,
258,
243,
219,
213,
215,
196,
187,
186,
199,
185,
173,
171,
154,
140,
123,
112,
116,
115,
107,
103,
80,
87,
81,
82,
78,
84,
62,
87,
53,
56,
52,
40,
42,
46,
45,
34,
29,
36,
26,
28,
25,
22,
16,
18,
9,
15,
21,
16,
9,
18,
11,
6,
8,
7,
3,
3,
2,
1,
3,
2,
0,
1,
0,
0,
0,
0,
0,
0,
0,
0,
0,
0,
0,
0,
0,
0,
0,
0,
0,
0,
0,
0,
0,
0,
0,
0,
0,
0,
0,
0,
0,
0,
0,
0,
0,
0,
0,
0,
1,
0,
0,
0,
0,
0,
0,
0,
0,
0,
0,
0,
0,
0,
0,
0,
0,
0,
0,
0,
0,
0,
0,
0,
0,
0,
0,
0,
0,
0,
0,
0,
0,
0,
0,
0,
0,
0,
0,
0,
0,
0,
0,
0,
0,
0,
0,
0,
0,
0,
0,
0,
0,
0,
0,
0,
0,
0,
0,
0,
0,
0,
0,
0,
0,
0,
0,
0,
0,
0,
0,
0,
0,
0,
0,
0,
0,
0,
0,
0,
0,
0,
0,
0,
0,
0,
0,
0,
0,
0,
0,
0,
0,
0,
0,
0,
0,
0,
0,
0,
0,
0,
0,
0,
0,
0,
0,
0,
0,
0,
0,
0,
0,
#ENDOFDATA   :