File: N132962/Quantification/20 keV/MMM2/SPI MM2 Scheelite[5][4].msa
#FORMAT      : EMSA/MAS Spectral Data File
#VERSION     : 1.0
#TITLE       : SPI MM2 Scheelite[5][all]
#DATE        : 13-MAR-2025
#TIME        : 12:17
#OWNER       : Unknown
#NPOINTS     : 4096
#NCOLUMNS    : 1
#XUNITS      : eV
#YUNITS      : counts
#DATATYPE    : Y
#XPERCHAN    : 9.99778
#OFFSET      : 1.69135
#BEAMKV      : 20
#SIGNALTYPE  : EDS
#ELEVANGLE   : 35
#AZIMANGLE   : 0
#LIVETIME    : 240.025
#REALTIME    : 263.146
#PROBECUR    : 1.02616
#TAUWIND     : 0
#TDEADLYR    : 0
#TACTLYR     : 0.045
#TALWIND     : 0.025
#CHOFFSET    : 0.0
#XLABEL      : Energy (eV)
#YLABEL      : Counts
#XPOSITION   : -2.76649
#YPOSITION   : 1.98439
#ZPOSITION   : 31.03511
#EDSDET      : SD
##SPECIMEN   : SPI MM2 Scheelite[5][all]
##DET_HASH   : 12273538-fd48-a23f-0a19-f1e6fa85caef
##CALIB_HASH : 6abaa72c-aa41-8738-0be9-f592914732f3
##WORKING    : 15.0 mm
##DET_NAME   : EDAX All
##DET_MODE   : MediumLE
#SPECTRUM    :
28,
534,
17595,
4742,
19999,
5232,
6275,
6830,
7762,
8559,
21104,
9937,
21364,
180639,
7322,
6095,
5566,
5641,
4699,
4711,
4873,
4933,
4863,
4992,
4903,
5443,
37199,
15177,
6050,
9410,
4293,
4213,
4185,
4145,
4107,
3979,
3947,
3926,
3882,
3936,
3616,
3563,
3529,
3386,
3340,
3420,
3613,
3136,
3131,
2945,
2999,
2819,
3050,
3917,
2726,
2568,
2527,
2467,
2490,
6971,
27418,
4235,
2453,
2193,
2037,
2046,
1951,
1968,
4024,
10633,
4738,
6412,
2619,
1808,
1453,
1401,
1433,
1450,
1323,
1388,
2097,
2180,
1304,
1587,
1227,
1041,
1141,
977,
876,
875,
848,
802,
838,
687,
729,
740,
689,
666,
677,
619,
541,
577,
561,
490,
517,
483,
419,
425,
402,
372,
378,
345,
354,
304,
267,
290,
252,
263,
240,
229,
203,
187,
186,
167,
153,
150,
119,
125,
125,
118,
97,
77,
78,
71,
58,
58,
52,
38,
38,
28,
15,
17,
9,
4,
4,
1,
5,
3,
4,
1,
3,
2,
0,
2,
2,
3,
3,
1,
3,
1,
4,
1,
2,
3,
0,
2,
1,
2,
0,
2,
0,
0,
1,
0,
1,
1,
3,
1,
4,
1,
1,
2,
0,
0,
0,
0,
0,
0,
0,
0,
1,
1,
0,
0,
1,
2,
1,
1,
0,
1,
0,
0,
0,
0,
0,
0,
0,
1,
0,
0,
0,
0,
0,
0,
0,
0,
0,
0,
0,
0,
0,
0,
0,
0,
0,
0,
0,
0,
0,
0,
0,
0,
0,
0,
0,
0,
0,
0,
0,
0,
0,
0,
0,
0,
0,
0,
0,
0,
0,
0,
0,
0,
0,
0,
0,
0,
0,
0,
0,
0,
0,
0,
0,
0,
0,
0,
0,
0,
0,
0,
0,
0,
0,
0,
0,
0,
0,
0,
0,
0,
0,
0,
0,
0,
0,
0,
0,
0,
0,
0,
0,
0,
0,
0,
#ENDOFDATA   :