File: N132962/Quantification/20 keV/MMM2/SPI MM2 Wollastonite[1][4].msa
#FORMAT      : EMSA/MAS Spectral Data File
#VERSION     : 1.0
#TITLE       : SPI MM2 Wollastonite[1][all]
#DATE        : 13-MAR-2025
#TIME        : 13:54
#OWNER       : Unknown
#NPOINTS     : 4096
#NCOLUMNS    : 1
#XUNITS      : eV
#YUNITS      : counts
#DATATYPE    : Y
#XPERCHAN    : 9.99778
#OFFSET      : 1.69135
#BEAMKV      : 20
#SIGNALTYPE  : EDS
#ELEVANGLE   : 35
#AZIMANGLE   : 0
#LIVETIME    : 239.85
#REALTIME    : 256.179
#PROBECUR    : 1.0264
#TAUWIND     : 0
#TDEADLYR    : 0
#TACTLYR     : 0.045
#TALWIND     : 0.025
#CHOFFSET    : 0.0
#XLABEL      : Energy (eV)
#YLABEL      : Counts
#XPOSITION   : 0.02148
#YPOSITION   : 6.26525
#ZPOSITION   : 31.03511
#EDSDET      : SD
##SPECIMEN   : SPI MM2 Wollastonite[1][all]
##DET_HASH   : 12273538-fd48-a23f-0a19-f1e6fa85caef
##CALIB_HASH : 6abaa72c-aa41-8738-0be9-f592914732f3
##WORKING    : 15.0 mm
##DET_NAME   : EDAX All
##DET_MODE   : MediumLE
#SPECTRUM    :
22,
211,
13968,
3055,
24333,
2140,
2698,
3113,
3695,
4300,
4893,
5572,
66570,
31637,
4790,
3184,
3517,
3086,
3053,
2918,
2975,
2840,
2813,
2771,
2567,
3593,
86928,
29341,
5758,
14706,
1817,
1619,
1566,
1667,
1491,
1465,
1463,
1385,
1455,
1694,
1340,
1309,
1361,
1182,
1185,
1160,
1238,
1071,
1023,
984,
940,
914,
918,
1048,
804,
844,
773,
819,
711,
734,
705,
699,
667,
627,
612,
586,
591,
545,
569,
509,
498,
498,
498,
448,
416,
402,
407,
361,
402,
352,
345,
319,
346,
293,
294,
285,
290,
248,
242,
251,
219,
218,
212,
213,
149,
192,
178,
171,
167,
156,
130,
132,
142,
121,
117,
97,
92,
111,
82,
101,
73,
74,
82,
62,
81,
76,
50,
49,
57,
42,
41,
36,
33,
33,
45,
31,
34,
18,
19,
25,
17,
15,
18,
9,
8,
9,
7,
7,
6,
6,
2,
5,
2,
0,
0,
0,
0,
1,
0,
0,
0,
1,
1,
0,
0,
1,
0,
0,
1,
0,
0,
0,
1,
0,
1,
0,
0,
0,
0,
0,
1,
0,
0,
0,
0,
0,
0,
0,
0,
0,
0,
0,
0,
0,
0,
1,
0,
0,
0,
0,
0,
0,
0,
0,
0,
0,
0,
0,
0,
0,
0,
0,
0,
0,
0,
0,
0,
0,
0,
0,
0,
0,
0,
0,
0,
0,
0,
0,
0,
0,
0,
0,
0,
0,
0,
0,
0,
0,
0,
0,
0,
0,
0,
0,
0,
0,
0,
0,
0,
0,
0,
0,
0,
0,
0,
0,
0,
0,
0,
0,
0,
0,
0,
0,
0,
0,
0,
0,
0,
0,
0,
0,
0,
0,
0,
0,
0,
0,
0,
0,
0,
0,
0,
0,
0,
0,
0,
0,
0,
0,
0,
0,
0,
0,
0,
0,
0,
0,
0,
0,
0,
0,
0,
0,
#ENDOFDATA   :