File: N132962/Quantification/20 keV/MMM2/SPI MM2 Scheelite[7][4].msa
#FORMAT      : EMSA/MAS Spectral Data File
#VERSION     : 1.0
#TITLE       : SPI MM2 Scheelite[7][all]
#DATE        : 13-MAR-2025
#TIME        : 12:20
#OWNER       : Unknown
#NPOINTS     : 4096
#NCOLUMNS    : 1
#XUNITS      : eV
#YUNITS      : counts
#DATATYPE    : Y
#XPERCHAN    : 9.99778
#OFFSET      : 1.69135
#BEAMKV      : 20
#SIGNALTYPE  : EDS
#ELEVANGLE   : 35
#AZIMANGLE   : 0
#LIVETIME    : 240.193
#REALTIME    : 263.3399
#PROBECUR    : 1.02616
#TAUWIND     : 0
#TDEADLYR    : 0
#TACTLYR     : 0.045
#TALWIND     : 0.025
#CHOFFSET    : 0.0
#XLABEL      : Energy (eV)
#YLABEL      : Counts
#XPOSITION   : -2.77414
#YPOSITION   : 1.97129
#ZPOSITION   : 31.03511
#EDSDET      : SD
##SPECIMEN   : SPI MM2 Scheelite[7][all]
##DET_HASH   : 12273538-fd48-a23f-0a19-f1e6fa85caef
##CALIB_HASH : 6abaa72c-aa41-8738-0be9-f592914732f3
##WORKING    : 15.0 mm
##DET_NAME   : EDAX All
##DET_MODE   : MediumLE
#SPECTRUM    :
29,
511,
17848,
4644,
19976,
5086,
6373,
6834,
7638,
8738,
20866,
10062,
21554,
180641,
7180,
6169,
5519,
5517,
4784,
4757,
4910,
4796,
4854,
5000,
4941,
5229,
37144,
15058,
6092,
9656,
4338,
4276,
4301,
4057,
4134,
3900,
4080,
3826,
3771,
3837,
3643,
3595,
3570,
3405,
3288,
3357,
3552,
3171,
3002,
3041,
2906,
2865,
3164,
3927,
2764,
2529,
2580,
2524,
2456,
6868,
27374,
4334,
2397,
2215,
1996,
1947,
1980,
1988,
3878,
10662,
4784,
6331,
2675,
1744,
1424,
1405,
1451,
1370,
1373,
1342,
2031,
2220,
1283,
1537,
1218,
1005,
1034,
943,
920,
898,
892,
782,
800,
680,
700,
722,
678,
671,
635,
628,
567,
542,
488,
506,
480,
447,
408,
445,
425,
389,
335,
332,
295,
334,
268,
290,
265,
269,
236,
212,
209,
222,
175,
173,
155,
133,
116,
151,
113,
124,
81,
85,
75,
70,
65,
57,
45,
31,
46,
30,
26,
15,
7,
2,
4,
4,
3,
2,
3,
6,
5,
2,
2,
2,
3,
2,
0,
1,
0,
1,
1,
1,
1,
1,
2,
2,
2,
1,
2,
2,
0,
1,
0,
1,
0,
1,
2,
1,
0,
0,
0,
1,
2,
0,
1,
2,
1,
0,
0,
0,
0,
1,
0,
0,
0,
1,
1,
0,
1,
0,
0,
1,
0,
0,
1,
0,
0,
0,
1,
1,
0,
0,
0,
0,
0,
0,
0,
0,
0,
1,
0,
0,
0,
0,
0,
0,
0,
0,
0,
0,
0,
0,
0,
0,
0,
0,
0,
0,
1,
0,
0,
0,
0,
0,
0,
0,
0,
0,
0,
0,
0,
0,
0,
0,
0,
0,
0,
0,
0,
0,
0,
0,
0,
0,
0,
0,
0,
0,
0,
0,
0,
0,
0,
0,
0,
0,
0,
0,
0,
0,
0,
0,
0,
0,
0,
0,
0,
0,
0,
0,
0,
0,
0,
0,
#ENDOFDATA   :