File: N132962/Quantification/20 keV/MMM2/SPI MM2 Rhodonite[0][4].msa
#FORMAT      : EMSA/MAS Spectral Data File
#VERSION     : 1.0
#TITLE       : SPI MM2 Rhodonite[0][all]
#DATE        : 13-MAR-2025
#TIME        : 12:21
#OWNER       : Unknown
#NPOINTS     : 4096
#NCOLUMNS    : 1
#XUNITS      : eV
#YUNITS      : counts
#DATATYPE    : Y
#XPERCHAN    : 9.99778
#OFFSET      : 1.69135
#BEAMKV      : 20
#SIGNALTYPE  : EDS
#ELEVANGLE   : 35
#AZIMANGLE   : 0
#LIVETIME    : 240.075
#REALTIME    : 256.614
#PROBECUR    : 1.02616
#TAUWIND     : 0
#TDEADLYR    : 0
#TACTLYR     : 0.045
#TALWIND     : 0.025
#CHOFFSET    : 0.0
#XLABEL      : Energy (eV)
#YLABEL      : Counts
#XPOSITION   : 0.04892
#YPOSITION   : 1.23429
#ZPOSITION   : 31.03511
#EDSDET      : SD
##SPECIMEN   : SPI MM2 Rhodonite[0][all]
##DET_HASH   : 12273538-fd48-a23f-0a19-f1e6fa85caef
##CALIB_HASH : 6abaa72c-aa41-8738-0be9-f592914732f3
##WORKING    : 15.0 mm
##DET_NAME   : EDAX All
##DET_MODE   : MediumLE
#SPECTRUM    :
22,
206,
11100,
7090,
63653,
5908,
2407,
2882,
3437,
9959,
4305,
5251,
53214,
26066,
3274,
3312,
3746,
3303,
3275,
3147,
3119,
2919,
3004,
2788,
2749,
2976,
10819,
5096,
2731,
3745,
2501,
2236,
2109,
2081,
1982,
1970,
1844,
1800,
1742,
1650,
1806,
3517,
70573,
7143,
1515,
3152,
13146,
3908,
1103,
1125,
1587,
1331,
981,
1008,
1008,
981,
839,
836,
874,
827,
829,
763,
730,
714,
666,
678,
646,
637,
642,
575,
588,
588,
527,
499,
513,
498,
472,
485,
436,
443,
403,
377,
354,
349,
375,
338,
339,
282,
294,
283,
275,
267,
249,
225,
240,
236,
204,
199,
192,
193,
171,
163,
161,
146,
130,
124,
114,
128,
103,
108,
80,
85,
83,
82,
95,
81,
58,
63,
58,
64,
45,
58,
41,
41,
42,
28,
32,
30,
25,
20,
24,
16,
22,
16,
9,
14,
10,
3,
7,
5,
4,
3,
1,
0,
0,
0,
0,
1,
1,
0,
0,
0,
0,
0,
0,
0,
0,
0,
0,
0,
0,
0,
0,
0,
0,
0,
0,
0,
0,
0,
0,
0,
0,
0,
0,
0,
0,
0,
0,
0,
0,
0,
0,
0,
0,
0,
0,
0,
0,
0,
0,
0,
0,
0,
0,
0,
0,
0,
0,
0,
0,
0,
0,
0,
0,
0,
0,
0,
0,
0,
0,
0,
0,
0,
0,
0,
0,
0,
0,
0,
0,
0,
0,
0,
0,
0,
0,
0,
0,
0,
0,
0,
0,
0,
0,
0,
0,
0,
0,
0,
0,
0,
0,
0,
0,
0,
0,
0,
0,
0,
0,
0,
0,
0,
0,
0,
0,
0,
0,
0,
0,
0,
0,
0,
0,
0,
0,
0,
0,
0,
0,
0,
0,
0,
0,
0,
0,
0,
0,
0,
0,
0,
0,
0,
0,
0,
0,
0,
0,
0,
0,
0,
0,
0,
#ENDOFDATA   :