File: N132962/Quantification/20 keV/MMM2/SPI MM2 SPI Orthoclaise[5][4].msa
#FORMAT      : EMSA/MAS Spectral Data File
#VERSION     : 1.0
#TITLE       : SPI MM2 SPI Orthoclaise[5][all]
#DATE        : 13-MAR-2025
#TIME        : 10:28
#OWNER       : Unknown
#NPOINTS     : 4096
#NCOLUMNS    : 1
#XUNITS      : eV
#YUNITS      : counts
#DATATYPE    : Y
#XPERCHAN    : 9.99778
#OFFSET      : 1.69135
#BEAMKV      : 20
#SIGNALTYPE  : EDS
#ELEVANGLE   : 35
#AZIMANGLE   : 0
#LIVETIME    : 239.858
#REALTIME    : 255.973
#PROBECUR    : 1.02606
#TAUWIND     : 0
#TDEADLYR    : 0
#TACTLYR     : 0.045
#TALWIND     : 0.025
#CHOFFSET    : 0.0
#XLABEL      : Energy (eV)
#YLABEL      : Counts
#XPOSITION   : 6.12979
#YPOSITION   : 0.17989
#ZPOSITION   : 31.0351
#EDSDET      : SD
##SPECIMEN   : SPI MM2 SPI Orthoclaise[5][all]
##D2STDCMP   : SPI Orthoclaise,(O:45.86),(Na:0.67),(Al:8.85),(Si:30.29),(K:12.85),(Fe:1.4),(Ba:0.04),5.0
##DET_HASH   : 12273538-fd48-a23f-0a19-f1e6fa85caef
##CALIB_HASH : 6abaa72c-aa41-8738-0be9-f592914732f3
##WORKING    : 15.0 mm
##DET_NAME   : EDAX All
##DET_MODE   : MediumLE
#SPECTRUM    :
22,
188,
9325,
4390,
42250,
3662,
2580,
3334,
3842,
4365,
9191,
30293,
74127,
34593,
2533,
2362,
2831,
2539,
2479,
2503,
2370,
2437,
2321,
10056,
41020,
3791,
6138,
1832,
1754,
1640,
1597,
1528,
1694,
1549,
1444,
1439,
1501,
1292,
1307,
1200,
1201,
1112,
1156,
1146,
1050,
1813,
3661,
982,
936,
862,
1208,
959,
750,
786,
773,
760,
711,
680,
634,
603,
604,
573,
597,
563,
540,
534,
462,
441,
481,
456,
438,
409,
445,
384,
360,
384,
328,
319,
335,
300,
320,
292,
274,
266,
252,
230,
210,
242,
222,
210,
203,
184,
160,
166,
148,
145,
152,
153,
139,
137,
111,
97,
110,
87,
91,
78,
94,
77,
79,
70,
74,
71,
63,
66,
45,
44,
46,
45,
37,
33,
39,
34,
27,
27,
19,
38,
16,
16,
19,
18,
11,
12,
4,
11,
10,
6,
2,
7,
3,
2,
2,
1,
0,
0,
0,
0,
0,
0,
0,
0,
1,
0,
0,
0,
0,
0,
0,
0,
0,
0,
0,
0,
0,
0,
0,
0,
0,
0,
0,
0,
0,
0,
0,
0,
0,
0,
0,
0,
0,
0,
0,
0,
0,
0,
0,
0,
0,
0,
0,
0,
0,
0,
0,
0,
0,
0,
0,
0,
0,
0,
0,
0,
0,
0,
0,
0,
0,
0,
0,
0,
0,
0,
0,
0,
0,
0,
0,
0,
0,
0,
0,
0,
0,
0,
0,
0,
0,
0,
0,
0,
0,
0,
0,
0,
0,
0,
0,
0,
0,
0,
0,
0,
0,
0,
0,
0,
0,
0,
0,
0,
0,
0,
0,
0,
0,
0,
0,
0,
0,
0,
0,
0,
0,
0,
0,
0,
0,
0,
0,
0,
0,
0,
0,
0,
0,
0,
0,
0,
0,
0,
0,
0,
0,
0,
0,
0,
0,
0,
0,
0,
0,
0,
0,
0,
#ENDOFDATA   :