File: N132962/Quantification/20 keV/MMM2/SPI MM2 Wollastonite[6][4].msa
#FORMAT      : EMSA/MAS Spectral Data File
#VERSION     : 1.0
#TITLE       : SPI MM2 Wollastonite[6][all]
#DATE        : 13-MAR-2025
#TIME        : 14:00
#OWNER       : Unknown
#NPOINTS     : 4096
#NCOLUMNS    : 1
#XUNITS      : eV
#YUNITS      : counts
#DATATYPE    : Y
#XPERCHAN    : 9.99778
#OFFSET      : 1.69135
#BEAMKV      : 20
#SIGNALTYPE  : EDS
#ELEVANGLE   : 35
#AZIMANGLE   : 0
#LIVETIME    : 239.87
#REALTIME    : 256.165
#PROBECUR    : 1.0264
#TAUWIND     : 0
#TDEADLYR    : 0
#TACTLYR     : 0.045
#TALWIND     : 0.025
#CHOFFSET    : 0.0
#XLABEL      : Energy (eV)
#YLABEL      : Counts
#XPOSITION   : -0.03496
#YPOSITION   : 6.16508
#ZPOSITION   : 31.03511
#EDSDET      : SD
##SPECIMEN   : SPI MM2 Wollastonite[6][all]
##DET_HASH   : 12273538-fd48-a23f-0a19-f1e6fa85caef
##CALIB_HASH : 6abaa72c-aa41-8738-0be9-f592914732f3
##WORKING    : 15.0 mm
##DET_NAME   : EDAX All
##DET_MODE   : MediumLE
#SPECTRUM    :
23,
170,
14074,
3077,
24319,
2036,
2729,
3202,
3786,
4353,
4877,
5685,
65982,
31056,
4773,
3053,
3430,
3151,
3049,
3042,
2851,
2867,
2794,
2747,
2688,
3598,
87063,
29047,
5773,
14609,
1804,
1593,
1626,
1563,
1510,
1424,
1516,
1477,
1403,
1703,
1303,
1348,
1345,
1198,
1197,
1170,
1186,
1029,
1007,
945,
1003,
947,
912,
1036,
884,
838,
786,
757,
716,
684,
709,
642,
645,
634,
622,
566,
550,
578,
494,
539,
488,
494,
464,
452,
438,
446,
362,
370,
371,
382,
384,
318,
318,
322,
319,
278,
273,
243,
240,
226,
206,
210,
203,
197,
207,
189,
194,
176,
151,
150,
134,
143,
129,
108,
108,
115,
95,
97,
100,
87,
85,
82,
71,
62,
69,
74,
53,
38,
40,
41,
37,
42,
34,
43,
26,
35,
26,
19,
22,
13,
17,
15,
19,
10,
16,
14,
10,
6,
9,
8,
6,
2,
0,
1,
1,
0,
0,
0,
0,
0,
1,
0,
1,
0,
1,
0,
0,
0,
0,
0,
0,
0,
0,
0,
0,
0,
0,
0,
0,
0,
0,
0,
0,
0,
0,
0,
0,
0,
0,
0,
0,
0,
0,
0,
0,
0,
0,
0,
0,
0,
0,
0,
0,
0,
0,
0,
0,
0,
0,
0,
0,
0,
0,
0,
0,
0,
0,
0,
0,
0,
0,
0,
0,
0,
0,
0,
0,
0,
0,
0,
0,
0,
0,
0,
0,
0,
0,
0,
0,
0,
0,
0,
0,
0,
0,
0,
0,
0,
0,
0,
0,
0,
0,
0,
0,
0,
0,
0,
0,
0,
0,
0,
0,
0,
0,
0,
0,
0,
0,
0,
0,
0,
0,
0,
0,
0,
0,
0,
0,
0,
0,
0,
0,
0,
0,
0,
0,
0,
0,
0,
0,
0,
0,
0,
0,
0,
0,
0,
0,
0,
0,
0,
0,
0,
#ENDOFDATA   :