File: N132962/Quantification/20 keV/MMM2/SPI MM2 SPI Molybdenite[0][4].msa
#FORMAT      : EMSA/MAS Spectral Data File
#VERSION     : 1.0
#TITLE       : SPI MM2 SPI Molybdenite[0][all]
#DATE        : 13-MAR-2025
#TIME        : 10:13
#OWNER       : Unknown
#NPOINTS     : 4096
#NCOLUMNS    : 1
#XUNITS      : eV
#YUNITS      : counts
#DATATYPE    : Y
#XPERCHAN    : 9.99778
#OFFSET      : 1.69135
#BEAMKV      : 20
#SIGNALTYPE  : EDS
#ELEVANGLE   : 35
#AZIMANGLE   : 0
#LIVETIME    : 239.68
#REALTIME    : 266.2858
#PROBECUR    : 1.02627
#TAUWIND     : 0
#TDEADLYR    : 0
#TACTLYR     : 0.045
#TALWIND     : 0.025
#CHOFFSET    : 0.0
#XLABEL      : Energy (eV)
#YLABEL      : Counts
#XPOSITION   : 5.96642
#YPOSITION   : -2.74698
#ZPOSITION   : 31.03509
#EDSDET      : SD
##SPECIMEN   : SPI MM2 SPI Molybdenite[0][all]
##D2STDCMP   : SPI Molybdenite,(S:39.84),(Mo:59.29),5.0
##DET_HASH   : 12273538-fd48-a23f-0a19-f1e6fa85caef
##CALIB_HASH : 6abaa72c-aa41-8738-0be9-f592914732f3
##WORKING    : 15.0 mm
##DET_NAME   : EDAX All
##DET_MODE   : MediumLE
#SPECTRUM    :
18,
2594,
14464,
2578,
14501,
5736,
5834,
6527,
7410,
8186,
8762,
9159,
9459,
9388,
11813,
12924,
184032,
173085,
24586,
4421,
4183,
3180,
3160,
3363,
3241,
3434,
3423,
3441,
3346,
3341,
3401,
3232,
3385,
4851,
3622,
3055,
2915,
2860,
2847,
2795,
2731,
2629,
2638,
2482,
2425,
2448,
2671,
2302,
2237,
2249,
2129,
2076,
1982,
2121,
1871,
1903,
1801,
1773,
1716,
1727,
1642,
1580,
1568,
1459,
1399,
1409,
1375,
1304,
1271,
1256,
1183,
1170,
1206,
1151,
1021,
1039,
980,
1025,
957,
889,
949,
878,
821,
785,
761,
739,
675,
674,
644,
602,
583,
565,
539,
542,
513,
512,
441,
456,
427,
420,
385,
399,
370,
340,
290,
307,
292,
291,
247,
214,
227,
260,
189,
186,
169,
185,
154,
159,
144,
151,
124,
119,
118,
92,
87,
103,
75,
86,
67,
61,
51,
49,
37,
53,
40,
28,
27,
19,
21,
15,
13,
9,
4,
2,
2,
1,
2,
2,
1,
0,
0,
1,
4,
1,
0,
0,
2,
0,
0,
0,
0,
0,
0,
0,
0,
0,
0,
0,
1,
0,
0,
0,
0,
1,
0,
0,
0,
1,
1,
0,
0,
1,
0,
0,
0,
1,
0,
0,
0,
0,
0,
0,
0,
0,
0,
0,
0,
0,
1,
0,
0,
0,
0,
0,
1,
0,
0,
0,
0,
0,
0,
0,
0,
0,
0,
0,
0,
0,
0,
0,
0,
0,
0,
0,
0,
0,
0,
0,
0,
0,
0,
0,
0,
0,
0,
0,
0,
0,
0,
0,
0,
0,
0,
0,
0,
0,
0,
0,
0,
0,
0,
0,
0,
0,
0,
0,
0,
0,
0,
0,
0,
0,
0,
0,
0,
0,
0,
0,
0,
0,
0,
0,
0,
0,
0,
0,
0,
0,
0,
0,
0,
0,
0,
0,
0,
0,
0,
0,
0,
0,
0,
0,
0,
0,
#ENDOFDATA   :