File: N132962/Quantification/20 keV/MMM2/SPI MM2 Tugtupite[7][4].msa
#FORMAT      : EMSA/MAS Spectral Data File
#VERSION     : 1.0
#TITLE       : SPI MM2 Tugtupite[7][all]
#DATE        : 13-MAR-2025
#TIME        : 13:43
#OWNER       : Unknown
#NPOINTS     : 4096
#NCOLUMNS    : 1
#XUNITS      : eV
#YUNITS      : counts
#DATATYPE    : Y
#XPERCHAN    : 9.99778
#OFFSET      : 1.69135
#BEAMKV      : 20
#SIGNALTYPE  : EDS
#ELEVANGLE   : 35
#AZIMANGLE   : 0
#LIVETIME    : 239.816
#REALTIME    : 255.331
#PROBECUR    : 1.0264
#TAUWIND     : 0
#TDEADLYR    : 0
#TACTLYR     : 0.045
#TALWIND     : 0.025
#CHOFFSET    : 0.0
#XLABEL      : Energy (eV)
#YLABEL      : Counts
#XPOSITION   : -4.52801
#YPOSITION   : 3.59451
#ZPOSITION   : 31.03511
#EDSDET      : SD
##SPECIMEN   : SPI MM2 Tugtupite[7][all]
##DET_HASH   : 12273538-fd48-a23f-0a19-f1e6fa85caef
##CALIB_HASH : 6abaa72c-aa41-8738-0be9-f592914732f3
##WORKING    : 15.0 mm
##DET_NAME   : EDAX All
##DET_MODE   : MediumLE
#SPECTRUM    :
18,
231,
8508,
5330,
50937,
2349,
3630,
29632,
8694,
3222,
6138,
18720,
55598,
26218,
2315,
2340,
2714,
2430,
5234,
29860,
6032,
2128,
2009,
2045,
1773,
1982,
1934,
1735,
1660,
1581,
1530,
1496,
1448,
1475,
1311,
1345,
1179,
1177,
1231,
1089,
1113,
1051,
1034,
1013,
953,
989,
960,
837,
844,
814,
759,
730,
699,
739,
689,
626,
613,
612,
550,
629,
560,
533,
505,
503,
488,
443,
461,
415,
457,
419,
419,
327,
376,
370,
326,
339,
321,
296,
293,
289,
275,
247,
239,
232,
239,
209,
224,
209,
206,
199,
209,
170,
154,
141,
135,
146,
116,
117,
120,
109,
105,
87,
91,
84,
100,
84,
67,
66,
63,
57,
58,
57,
51,
52,
41,
46,
39,
39,
36,
43,
28,
24,
28,
19,
25,
27,
17,
14,
17,
7,
11,
6,
9,
9,
6,
5,
6,
5,
3,
3,
3,
0,
1,
0,
0,
0,
0,
0,
0,
0,
0,
0,
0,
0,
0,
0,
0,
0,
0,
0,
0,
0,
0,
0,
0,
0,
0,
0,
0,
0,
0,
0,
0,
0,
0,
0,
0,
0,
0,
0,
0,
0,
0,
0,
0,
0,
0,
0,
0,
0,
0,
0,
0,
0,
0,
0,
0,
0,
0,
0,
0,
0,
0,
0,
0,
0,
0,
0,
0,
0,
0,
0,
0,
0,
0,
0,
0,
0,
0,
0,
0,
0,
0,
0,
0,
0,
0,
0,
0,
0,
0,
0,
0,
0,
0,
0,
0,
0,
0,
0,
0,
0,
0,
0,
0,
0,
0,
0,
0,
0,
0,
0,
0,
0,
0,
0,
0,
0,
0,
0,
0,
0,
0,
0,
0,
0,
0,
0,
0,
0,
0,
0,
0,
0,
0,
0,
0,
0,
0,
0,
0,
0,
0,
0,
0,
0,
0,
0,
0,
0,
0,
0,
0,
0,
#ENDOFDATA   :