File: N132962/Quantification/20 keV/MMM2/SPI MM2 Sphodumene[4][4].msa
#FORMAT      : EMSA/MAS Spectral Data File
#VERSION     : 1.0
#TITLE       : SPI MM2 Sphodumene[4][all]
#DATE        : 13-MAR-2025
#TIME        : 13:12
#OWNER       : Unknown
#NPOINTS     : 4096
#NCOLUMNS    : 1
#XUNITS      : eV
#YUNITS      : counts
#DATATYPE    : Y
#XPERCHAN    : 9.99778
#OFFSET      : 1.69135
#BEAMKV      : 20
#SIGNALTYPE  : EDS
#ELEVANGLE   : 35
#AZIMANGLE   : 0
#LIVETIME    : 239.884
#REALTIME    : 255.844
#PROBECUR    : 1.0263
#TAUWIND     : 0
#TDEADLYR    : 0
#TACTLYR     : 0.045
#TALWIND     : 0.025
#CHOFFSET    : 0.0
#XLABEL      : Energy (eV)
#YLABEL      : Counts
#XPOSITION   : 3.54416
#YPOSITION   : 3.46006
#ZPOSITION   : 31.03511
#EDSDET      : SD
##SPECIMEN   : SPI MM2 Sphodumene[4][all]
##DET_HASH   : 12273538-fd48-a23f-0a19-f1e6fa85caef
##CALIB_HASH : 6abaa72c-aa41-8738-0be9-f592914732f3
##WORKING    : 15.0 mm
##DET_NAME   : EDAX All
##DET_MODE   : MediumLE
#SPECTRUM    :
26,
188,
8160,
6706,
71251,
1898,
2396,
3278,
3618,
4306,
12660,
48827,
69994,
32810,
2270,
1997,
2719,
2101,
1985,
2032,
2049,
2036,
1988,
2196,
1837,
2141,
1769,
1664,
1588,
1529,
1499,
1403,
1319,
1334,
1293,
1248,
1243,
1123,
1031,
1128,
1034,
996,
1047,
929,
962,
906,
928,
711,
734,
712,
718,
688,
653,
695,
629,
616,
595,
584,
570,
521,
485,
523,
455,
483,
448,
452,
450,
390,
402,
384,
360,
351,
327,
335,
320,
280,
298,
278,
273,
263,
244,
234,
258,
225,
227,
198,
195,
191,
157,
164,
189,
139,
153,
137,
112,
114,
121,
131,
110,
91,
82,
103,
82,
94,
64,
65,
52,
67,
49,
60,
47,
48,
50,
42,
39,
45,
46,
26,
38,
28,
31,
25,
27,
23,
16,
18,
18,
12,
14,
16,
7,
12,
14,
8,
8,
3,
6,
4,
5,
0,
1,
0,
2,
0,
1,
0,
0,
0,
0,
1,
0,
0,
0,
0,
0,
0,
0,
0,
0,
0,
0,
0,
0,
0,
0,
0,
0,
0,
0,
0,
0,
1,
0,
0,
0,
0,
0,
0,
0,
0,
0,
0,
0,
0,
0,
0,
0,
0,
0,
0,
0,
0,
0,
0,
0,
0,
0,
0,
0,
0,
0,
0,
0,
0,
0,
0,
0,
0,
0,
0,
0,
0,
0,
0,
0,
0,
0,
0,
0,
0,
0,
0,
0,
0,
0,
0,
0,
0,
0,
0,
0,
0,
0,
0,
0,
0,
0,
0,
0,
0,
0,
0,
0,
0,
0,
0,
0,
0,
0,
0,
0,
0,
0,
0,
0,
0,
0,
0,
0,
0,
0,
0,
0,
0,
0,
0,
0,
0,
0,
0,
0,
0,
0,
0,
0,
0,
0,
0,
0,
0,
0,
0,
0,
0,
0,
0,
0,
0,
0,
0,
0,
0,
0,
0,
#ENDOFDATA   :