File: N132962/Quantification/20 keV/MMM2/SPI MM2 Stibnite[3][4].msa
#FORMAT      : EMSA/MAS Spectral Data File
#VERSION     : 1.0
#TITLE       : SPI MM2 Stibnite[3][all]
#DATE        : 13-MAR-2025
#TIME        : 13:20
#OWNER       : Unknown
#NPOINTS     : 4096
#NCOLUMNS    : 1
#XUNITS      : eV
#YUNITS      : counts
#DATATYPE    : Y
#XPERCHAN    : 9.99778
#OFFSET      : 1.69135
#BEAMKV      : 20
#SIGNALTYPE  : EDS
#ELEVANGLE   : 35
#AZIMANGLE   : 0
#LIVETIME    : 239.886
#REALTIME    : 263.338
#PROBECUR    : 1.0263
#TAUWIND     : 0
#TDEADLYR    : 0
#TACTLYR     : 0.045
#TALWIND     : 0.025
#CHOFFSET    : 0.0
#XLABEL      : Energy (eV)
#YLABEL      : Counts
#XPOSITION   : 1.5989
#YPOSITION   : 4.38171
#ZPOSITION   : 31.03511
#EDSDET      : SD
##SPECIMEN   : SPI MM2 Stibnite[3][all]
##DET_HASH   : 12273538-fd48-a23f-0a19-f1e6fa85caef
##CALIB_HASH : 6abaa72c-aa41-8738-0be9-f592914732f3
##WORKING    : 15.0 mm
##DET_NAME   : EDAX All
##DET_MODE   : MediumLE
#SPECTRUM    :
29,
2064,
14747,
16951,
9461,
5458,
4825,
4583,
5259,
6042,
6645,
7395,
7773,
8935,
7508,
8477,
60467,
47907,
12154,
5618,
5531,
5528,
5744,
9531,
5974,
17532,
105219,
28217,
39162,
17344,
7252,
10205,
3959,
6410,
3323,
3156,
3152,
3089,
3120,
3167,
2989,
3001,
3165,
3131,
2929,
2905,
3193,
2794,
2640,
2534,
2531,
2441,
2426,
2503,
2411,
2291,
2239,
2171,
2042,
2125,
1965,
1922,
1894,
1876,
1798,
1720,
1757,
1619,
1650,
1559,
1505,
1455,
1397,
1405,
1363,
1354,
1201,
1242,
1169,
1215,
1124,
1063,
1063,
994,
970,
947,
850,
884,
870,
788,
813,
776,
708,
669,
725,
646,
601,
580,
536,
521,
513,
481,
482,
443,
456,
424,
393,
396,
364,
379,
306,
306,
326,
277,
267,
259,
207,
238,
215,
189,
177,
165,
169,
158,
139,
126,
127,
86,
84,
102,
62,
58,
58,
48,
63,
53,
45,
26,
17,
20,
29,
4,
6,
3,
2,
2,
1,
1,
1,
2,
2,
2,
2,
2,
1,
0,
1,
0,
1,
2,
0,
0,
1,
1,
0,
0,
1,
0,
1,
0,
0,
0,
0,
0,
0,
0,
0,
1,
1,
1,
1,
0,
0,
2,
1,
0,
0,
1,
0,
0,
0,
0,
0,
0,
1,
0,
0,
0,
0,
0,
0,
0,
0,
0,
0,
0,
0,
0,
0,
0,
0,
0,
0,
0,
0,
0,
0,
0,
0,
0,
0,
0,
0,
0,
0,
0,
0,
0,
0,
0,
0,
0,
1,
0,
0,
0,
0,
0,
0,
0,
0,
0,
0,
0,
0,
0,
0,
0,
0,
0,
0,
0,
0,
0,
0,
0,
0,
0,
0,
0,
0,
0,
0,
0,
0,
0,
0,
0,
0,
0,
0,
0,
0,
0,
0,
0,
0,
0,
0,
0,
0,
0,
0,
0,
0,
0,
0,
0,
0,
0,
0,
0,
0,
0,
#ENDOFDATA   :