File: N132962/Quantification/20 keV/MMM2/SPI MM2 Rhodonite[5][4].msa
#FORMAT      : EMSA/MAS Spectral Data File
#VERSION     : 1.0
#TITLE       : SPI MM2 Rhodonite[5][all]
#DATE        : 13-MAR-2025
#TIME        : 12:27
#OWNER       : Unknown
#NPOINTS     : 4096
#NCOLUMNS    : 1
#XUNITS      : eV
#YUNITS      : counts
#DATATYPE    : Y
#XPERCHAN    : 9.99778
#OFFSET      : 1.69135
#BEAMKV      : 20
#SIGNALTYPE  : EDS
#ELEVANGLE   : 35
#AZIMANGLE   : 0
#LIVETIME    : 239.88
#REALTIME    : 256.304
#PROBECUR    : 1.02616
#TAUWIND     : 0
#TDEADLYR    : 0
#TACTLYR     : 0.045
#TALWIND     : 0.025
#CHOFFSET    : 0.0
#XLABEL      : Energy (eV)
#YLABEL      : Counts
#XPOSITION   : 0.10887
#YPOSITION   : 1.16954
#ZPOSITION   : 31.03511
#EDSDET      : SD
##SPECIMEN   : SPI MM2 Rhodonite[5][all]
##DET_HASH   : 12273538-fd48-a23f-0a19-f1e6fa85caef
##CALIB_HASH : 6abaa72c-aa41-8738-0be9-f592914732f3
##WORKING    : 15.0 mm
##DET_NAME   : EDAX All
##DET_MODE   : MediumLE
#SPECTRUM    :
14,
217,
10858,
6844,
62767,
6021,
2310,
2828,
3292,
10240,
4308,
5088,
53339,
25689,
3347,
3291,
3640,
3317,
3182,
3233,
3104,
2991,
2968,
2919,
2781,
3022,
10895,
5156,
2815,
3681,
2437,
2162,
2133,
2110,
1896,
1963,
1876,
1824,
1736,
1733,
1721,
3463,
70240,
7002,
1514,
3066,
13212,
3816,
1161,
1102,
1570,
1324,
1018,
1043,
986,
982,
968,
875,
872,
830,
780,
783,
752,
690,
736,
663,
657,
605,
623,
609,
605,
542,
531,
492,
527,
467,
469,
461,
442,
421,
375,
384,
406,
351,
363,
390,
356,
315,
295,
274,
272,
269,
246,
244,
250,
209,
203,
187,
193,
158,
171,
169,
154,
153,
125,
147,
128,
126,
111,
106,
95,
91,
82,
85,
72,
82,
71,
71,
65,
44,
52,
48,
58,
30,
46,
35,
29,
17,
19,
20,
14,
27,
11,
12,
12,
9,
15,
10,
4,
3,
2,
1,
1,
2,
0,
0,
0,
2,
0,
0,
0,
0,
0,
0,
0,
0,
0,
0,
0,
0,
0,
0,
0,
0,
0,
0,
0,
0,
0,
0,
0,
0,
1,
1,
0,
0,
0,
0,
0,
0,
0,
0,
0,
0,
0,
0,
0,
0,
0,
0,
0,
0,
0,
0,
0,
0,
0,
0,
0,
0,
0,
0,
0,
0,
0,
0,
0,
0,
0,
0,
0,
0,
1,
0,
0,
0,
0,
0,
0,
0,
0,
0,
0,
0,
0,
0,
0,
0,
0,
0,
0,
0,
0,
0,
0,
0,
0,
0,
0,
0,
0,
0,
0,
0,
0,
0,
0,
0,
0,
0,
0,
0,
0,
0,
0,
0,
0,
0,
0,
0,
0,
0,
0,
0,
0,
0,
0,
0,
0,
0,
0,
0,
0,
0,
0,
0,
0,
0,
0,
0,
0,
0,
0,
0,
0,
0,
0,
0,
0,
0,
0,
0,
0,
0,
#ENDOFDATA   :