File: N132962/Quantification/20 keV/MMM2/SPI MM2 SPI Monazite[4][4].msa
#FORMAT      : EMSA/MAS Spectral Data File
#VERSION     : 1.0
#TITLE       : SPI MM2 SPI Monazite[4][all]
#DATE        : 13-MAR-2025
#TIME        : 10:08
#OWNER       : Unknown
#NPOINTS     : 4096
#NCOLUMNS    : 1
#XUNITS      : eV
#YUNITS      : counts
#DATATYPE    : Y
#XPERCHAN    : 9.99778
#OFFSET      : 1.69135
#BEAMKV      : 20
#SIGNALTYPE  : EDS
#ELEVANGLE   : 35
#AZIMANGLE   : 0
#LIVETIME    : 240.007
#REALTIME    : 258.4679
#PROBECUR    : 1.02627
#TAUWIND     : 0
#TDEADLYR    : 0
#TACTLYR     : 0.045
#TALWIND     : 0.025
#CHOFFSET    : 0.0
#XLABEL      : Energy (eV)
#YLABEL      : Counts
#XPOSITION   : 2.35645
#YPOSITION   : -2.77951
#ZPOSITION   : 31.03509
#EDSDET      : SD
##SPECIMEN   : SPI MM2 SPI Monazite[4][all]
##D2STDCMP   : SPI Monazite,(O:26.45),(Si:0.83),(P:11.85),(Ca:0.65),(Y:1.59),(La:7.84),(Ce:19.96),(Pr:2.47),(Nd:9.68),(Sm:3.7),(Eu:0.38),(Gd:2.89),(Tb:0.35),(Dy:1.21),(Pb:0.25),(Th:9.7),(U:0.16),5.0
##DET_HASH   : 12273538-fd48-a23f-0a19-f1e6fa85caef
##CALIB_HASH : 6abaa72c-aa41-8738-0be9-f592914732f3
##WORKING    : 15.0 mm
##DET_NAME   : EDAX All
##DET_MODE   : MediumLE
#SPECTRUM    :
15,
429,
17618,
7832,
40282,
9387,
10964,
9054,
7303,
6502,
5661,
5653,
7456,
7213,
35819,
12806,
5152,
6093,
5310,
5214,
5221,
11346,
11111,
7895,
6157,
4723,
6060,
4852,
4462,
4694,
4427,
4503,
4234,
13007,
13222,
16944,
12160,
15387,
15481,
6411,
10921,
9081,
4325,
7020,
5339,
4215,
3587,
3990,
3352,
2777,
2507,
2712,
2599,
2280,
2120,
2140,
1987,
1931,
2011,
1864,
1829,
1707,
1790,
1641,
1575,
1580,
1459,
1418,
1485,
1338,
1366,
1329,
1260,
1239,
1228,
1234,
1147,
1094,
1128,
1040,
1011,
1000,
988,
956,
868,
852,
871,
766,
822,
712,
750,
649,
860,
800,
603,
568,
553,
517,
532,
481,
460,
434,
432,
445,
400,
359,
380,
373,
317,
307,
277,
277,
262,
258,
210,
232,
204,
176,
175,
151,
139,
162,
120,
129,
121,
110,
97,
83,
97,
75,
81,
67,
65,
52,
40,
44,
31,
37,
21,
18,
13,
13,
7,
2,
5,
2,
3,
2,
1,
3,
0,
0,
0,
0,
2,
1,
3,
0,
3,
1,
0,
0,
0,
0,
1,
0,
0,
1,
0,
1,
0,
0,
0,
1,
1,
0,
0,
1,
0,
0,
0,
0,
0,
0,
0,
0,
0,
1,
0,
0,
0,
1,
0,
1,
1,
0,
0,
0,
0,
0,
0,
0,
0,
0,
0,
0,
0,
0,
0,
0,
0,
0,
0,
0,
1,
0,
0,
0,
0,
0,
0,
0,
0,
0,
0,
0,
0,
0,
0,
0,
0,
0,
0,
0,
0,
0,
0,
0,
0,
0,
0,
0,
0,
0,
0,
0,
0,
0,
0,
0,
0,
0,
0,
0,
0,
0,
0,
0,
0,
0,
0,
0,
0,
0,
0,
0,
0,
0,
0,
0,
0,
0,
0,
0,
0,
0,
0,
0,
0,
0,
0,
0,
0,
0,
0,
0,
0,
0,
0,
0,
0,
0,
0,
0,
#ENDOFDATA   :