File: N132962/Quantification/20 keV/MMM2/SPI MM2 SPI Plagioclase[2][4].msa
#FORMAT      : EMSA/MAS Spectral Data File
#VERSION     : 1.0
#TITLE       : SPI MM2 SPI Plagioclase[2][all]
#DATE        : 13-MAR-2025
#TIME        : 10:52
#OWNER       : Unknown
#NPOINTS     : 4096
#NCOLUMNS    : 1
#XUNITS      : eV
#YUNITS      : counts
#DATATYPE    : Y
#XPERCHAN    : 9.99778
#OFFSET      : 1.69135
#BEAMKV      : 20
#SIGNALTYPE  : EDS
#ELEVANGLE   : 35
#AZIMANGLE   : 0
#LIVETIME    : 239.892
#REALTIME    : 255.469
#PROBECUR    : 1.02609
#TAUWIND     : 0
#TDEADLYR    : 0
#TACTLYR     : 0.045
#TALWIND     : 0.025
#CHOFFSET    : 0.0
#XLABEL      : Energy (eV)
#YLABEL      : Counts
#XPOSITION   : -1.30706
#YPOSITION   : -0.17278
#ZPOSITION   : 31.0351
#EDSDET      : SD
##SPECIMEN   : SPI MM2 SPI Plagioclase[2][all]
##D2STDCMP   : SPI Plagioclase,(O:46.79),(Na:3.24),(Al:15.54),(Si:24.83),(K:0.2),(Ca:8.53),(Fe:0.27)
##DET_HASH   : 12273538-fd48-a23f-0a19-f1e6fa85caef
##CALIB_HASH : 6abaa72c-aa41-8738-0be9-f592914732f3
##WORKING    : 15.0 mm
##DET_NAME   : EDAX All
##DET_MODE   : MediumLE
#SPECTRUM    :
24,
162,
9574,
4774,
47618,
2221,
2798,
6947,
4424,
4742,
12643,
48909,
55228,
26933,
2908,
2389,
2706,
2391,
2391,
2381,
2361,
2386,
2260,
2740,
3041,
2442,
22243,
8527,
2672,
4848,
1632,
1505,
1631,
1424,
1363,
1324,
1317,
1336,
1265,
1229,
1169,
1083,
1036,
1022,
994,
1064,
1419,
891,
872,
826,
861,
893,
711,
727,
734,
689,
693,
640,
613,
631,
572,
554,
537,
526,
490,
487,
486,
443,
440,
429,
414,
397,
405,
395,
345,
338,
339,
331,
306,
306,
281,
299,
242,
246,
255,
223,
212,
220,
219,
198,
208,
203,
176,
158,
168,
149,
150,
142,
126,
110,
137,
108,
112,
98,
108,
68,
86,
55,
79,
62,
61,
55,
67,
51,
56,
54,
38,
50,
35,
39,
46,
37,
20,
20,
15,
15,
23,
23,
14,
14,
15,
15,
19,
14,
7,
12,
7,
8,
4,
3,
7,
0,
0,
0,
0,
0,
1,
0,
0,
0,
0,
0,
0,
0,
0,
0,
0,
0,
0,
0,
0,
0,
0,
0,
0,
0,
0,
0,
0,
0,
0,
0,
0,
0,
0,
0,
0,
0,
0,
0,
0,
0,
0,
0,
0,
0,
0,
0,
0,
0,
0,
0,
0,
0,
0,
0,
0,
0,
0,
0,
0,
0,
0,
0,
0,
0,
0,
0,
0,
0,
0,
0,
0,
0,
0,
0,
0,
0,
0,
0,
0,
0,
0,
0,
0,
0,
0,
0,
0,
0,
0,
0,
0,
0,
0,
0,
0,
0,
0,
0,
0,
0,
0,
0,
0,
0,
0,
0,
0,
0,
0,
0,
0,
0,
0,
0,
0,
0,
0,
0,
0,
0,
0,
0,
0,
0,
0,
0,
0,
0,
0,
0,
0,
0,
0,
0,
0,
0,
0,
0,
0,
0,
0,
0,
0,
0,
0,
0,
0,
0,
0,
0,
0,
0,
#ENDOFDATA   :