File: N132962/Quantification/20 keV/MMM2/SPI MM2 SPI Pollucite[4][4].msa
#FORMAT      : EMSA/MAS Spectral Data File
#VERSION     : 1.0
#TITLE       : SPI MM2 SPI Pollucite[4][all]
#DATE        : 13-MAR-2025
#TIME        : 11:04
#OWNER       : Unknown
#NPOINTS     : 4096
#NCOLUMNS    : 1
#XUNITS      : eV
#YUNITS      : counts
#DATATYPE    : Y
#XPERCHAN    : 9.99778
#OFFSET      : 1.69135
#BEAMKV      : 20
#SIGNALTYPE  : EDS
#ELEVANGLE   : 35
#AZIMANGLE   : 0
#LIVETIME    : 239.454
#REALTIME    : 256.554
#PROBECUR    : 1.02609
#TAUWIND     : 0
#TDEADLYR    : 0
#TACTLYR     : 0.045
#TALWIND     : 0.025
#CHOFFSET    : 0.0
#XLABEL      : Energy (eV)
#YLABEL      : Counts
#XPOSITION   : -4.09173
#YPOSITION   : -1.10824
#ZPOSITION   : 31.0351
#EDSDET      : SD
##SPECIMEN   : SPI MM2 SPI Pollucite[4][all]
##D2STDCMP   : SPI Pollucite,(Li:0.05),(O:35.94),(Na:1.5),(Al:9.06),(Si:22.2),(K:0.05),(Rb:0.17),(Cs:32.3)
##DET_HASH   : 12273538-fd48-a23f-0a19-f1e6fa85caef
##CALIB_HASH : 6abaa72c-aa41-8738-0be9-f592914732f3
##WORKING    : 15.0 mm
##DET_NAME   : EDAX All
##DET_MODE   : MediumLE
#SPECTRUM    :
26,
261,
11089,
7634,
63594,
4944,
3383,
5657,
4024,
4310,
8045,
22547,
44917,
22229,
3714,
3543,
3955,
3717,
4029,
3749,
3610,
3578,
3469,
3630,
3525,
3438,
3080,
4681,
3225,
3222,
13433,
28563,
3450,
24698,
6709,
8230,
3381,
2736,
4326,
2453,
2710,
2016,
1781,
1832,
1736,
1719,
1860,
1602,
1479,
1407,
1486,
1363,
1391,
1404,
1386,
1187,
1197,
1219,
1189,
1198,
1113,
1081,
1031,
1038,
1030,
993,
967,
894,
865,
872,
804,
860,
780,
734,
709,
742,
715,
668,
663,
616,
602,
557,
551,
527,
485,
464,
493,
452,
423,
424,
422,
399,
353,
332,
320,
353,
302,
298,
274,
269,
266,
256,
246,
205,
222,
223,
201,
176,
161,
165,
134,
148,
143,
122,
135,
107,
85,
118,
97,
90,
85,
67,
66,
62,
58,
55,
46,
34,
47,
28,
31,
41,
30,
24,
27,
20,
20,
13,
14,
5,
7,
4,
2,
0,
1,
1,
0,
1,
1,
1,
0,
0,
0,
0,
0,
0,
0,
0,
0,
0,
0,
0,
0,
2,
0,
0,
0,
0,
0,
0,
0,
0,
0,
0,
0,
0,
0,
0,
0,
0,
0,
0,
1,
0,
0,
0,
0,
0,
0,
0,
0,
0,
0,
0,
0,
0,
0,
0,
0,
0,
0,
0,
0,
0,
0,
0,
0,
0,
0,
0,
0,
0,
0,
0,
0,
0,
0,
0,
0,
0,
0,
0,
0,
0,
0,
0,
0,
0,
0,
0,
0,
0,
0,
0,
1,
0,
0,
0,
0,
0,
0,
0,
0,
0,
0,
0,
0,
0,
0,
0,
0,
0,
0,
0,
0,
0,
0,
0,
0,
0,
0,
0,
0,
0,
0,
0,
0,
0,
0,
0,
0,
0,
0,
0,
0,
0,
0,
0,
0,
0,
0,
0,
0,
0,
0,
0,
0,
0,
0,
0,
0,
0,
0,
0,
#ENDOFDATA   :