File: N132962/Quantification/20 keV/MMM2/SPI MM2 Zircon[6][4].msa
#FORMAT      : EMSA/MAS Spectral Data File
#VERSION     : 1.0
#TITLE       : SPI MM2 Zircon[6][all]
#DATE        : 13-MAR-2025
#TIME        : 13:51
#OWNER       : Unknown
#NPOINTS     : 4096
#NCOLUMNS    : 1
#XUNITS      : eV
#YUNITS      : counts
#DATATYPE    : Y
#XPERCHAN    : 9.99778
#OFFSET      : 1.69135
#BEAMKV      : 20
#SIGNALTYPE  : EDS
#ELEVANGLE   : 35
#AZIMANGLE   : 0
#LIVETIME    : 239.736
#REALTIME    : 257.321
#PROBECUR    : 1.0264
#TAUWIND     : 0
#TDEADLYR    : 0
#TACTLYR     : 0.045
#TALWIND     : 0.025
#CHOFFSET    : 0.0
#XLABEL      : Energy (eV)
#YLABEL      : Counts
#XPOSITION   : -2.69897
#YPOSITION   : 6.61901
#ZPOSITION   : 31.03511
#EDSDET      : SD
##SPECIMEN   : SPI MM2 Zircon[6][all]
##DET_HASH   : 12273538-fd48-a23f-0a19-f1e6fa85caef
##CALIB_HASH : 6abaa72c-aa41-8738-0be9-f592914732f3
##WORKING    : 15.0 mm
##DET_NAME   : EDAX All
##DET_MODE   : MediumLE
#SPECTRUM    :
23,
677,
14586,
4516,
25331,
3383,
4406,
4776,
5499,
6408,
7060,
7881,
51344,
32503,
27751,
102356,
12391,
3302,
4111,
3201,
3051,
3154,
3242,
3116,
3099,
3205,
3119,
3325,
3037,
3103,
2964,
2818,
2795,
2634,
2499,
2497,
2429,
2457,
2292,
2228,
2240,
2071,
2088,
2022,
1926,
1996,
2071,
1877,
1732,
1647,
1670,
1660,
1611,
1568,
1614,
1433,
1609,
1453,
1290,
1249,
1234,
1231,
1184,
1118,
1171,
1145,
1032,
1086,
991,
933,
948,
854,
901,
836,
821,
803,
774,
733,
725,
701,
656,
626,
613,
555,
549,
545,
528,
524,
482,
424,
417,
456,
387,
421,
356,
370,
313,
305,
324,
299,
269,
245,
247,
251,
226,
218,
201,
206,
179,
159,
155,
211,
512,
394,
169,
118,
110,
97,
88,
113,
97,
87,
61,
57,
82,
90,
120,
66,
55,
40,
38,
44,
38,
26,
26,
19,
15,
14,
17,
10,
9,
4,
3,
0,
1,
1,
2,
0,
2,
1,
1,
0,
1,
1,
0,
0,
1,
0,
1,
0,
0,
0,
0,
0,
0,
0,
0,
0,
0,
0,
0,
0,
0,
0,
0,
0,
0,
0,
0,
0,
0,
0,
0,
0,
0,
0,
0,
0,
0,
1,
0,
0,
0,
0,
0,
0,
0,
0,
0,
0,
1,
0,
0,
0,
0,
0,
0,
1,
0,
0,
0,
0,
0,
0,
0,
0,
0,
0,
0,
0,
0,
0,
0,
0,
0,
0,
0,
0,
0,
0,
0,
0,
0,
0,
0,
0,
0,
0,
0,
0,
0,
0,
0,
0,
0,
0,
0,
0,
0,
0,
0,
0,
0,
0,
0,
0,
0,
0,
0,
0,
0,
0,
0,
0,
0,
0,
0,
0,
0,
0,
0,
0,
0,
0,
0,
0,
0,
0,
0,
0,
0,
0,
0,
0,
0,
0,
0,
0,
0,
0,
0,
0,
0,
0,
#ENDOFDATA   :