File: N132962/Quantification/20 keV/MMM2/SPI MM2 SPI Orthoclaise[1][4].msa
#FORMAT      : EMSA/MAS Spectral Data File
#VERSION     : 1.0
#TITLE       : SPI MM2 SPI Orthoclaise[1][all]
#DATE        : 13-MAR-2025
#TIME        : 10:24
#OWNER       : Unknown
#NPOINTS     : 4096
#NCOLUMNS    : 1
#XUNITS      : eV
#YUNITS      : counts
#DATATYPE    : Y
#XPERCHAN    : 9.99778
#OFFSET      : 1.69135
#BEAMKV      : 20
#SIGNALTYPE  : EDS
#ELEVANGLE   : 35
#AZIMANGLE   : 0
#LIVETIME    : 239.809
#REALTIME    : 255.905
#PROBECUR    : 1.02606
#TAUWIND     : 0
#TDEADLYR    : 0
#TACTLYR     : 0.045
#TALWIND     : 0.025
#CHOFFSET    : 0.0
#XLABEL      : Energy (eV)
#YLABEL      : Counts
#XPOSITION   : 6.11682
#YPOSITION   : 0.10717
#ZPOSITION   : 31.0351
#EDSDET      : SD
##SPECIMEN   : SPI MM2 SPI Orthoclaise[1][all]
##D2STDCMP   : SPI Orthoclaise,(O:45.86),(Na:0.67),(Al:8.85),(Si:30.29),(K:12.85),(Fe:1.4),(Ba:0.04),5.0
##DET_HASH   : 12273538-fd48-a23f-0a19-f1e6fa85caef
##CALIB_HASH : 6abaa72c-aa41-8738-0be9-f592914732f3
##WORKING    : 15.0 mm
##DET_NAME   : EDAX All
##DET_MODE   : MediumLE
#SPECTRUM    :
24,
169,
9435,
4491,
42068,
3684,
2699,
3387,
3854,
4318,
9171,
30153,
73802,
34983,
2498,
2415,
2920,
2431,
2551,
2371,
2517,
2359,
2393,
10025,
40987,
3792,
6248,
1884,
1727,
1702,
1527,
1530,
1636,
1446,
1438,
1456,
1600,
1286,
1336,
1219,
1146,
1101,
1122,
1124,
1038,
1859,
3701,
945,
933,
944,
1151,
968,
799,
807,
735,
728,
713,
696,
660,
633,
628,
639,
582,
574,
562,
485,
527,
480,
443,
442,
444,
431,
408,
393,
367,
390,
351,
289,
328,
348,
290,
299,
276,
286,
248,
243,
215,
213,
204,
193,
206,
172,
208,
181,
179,
154,
138,
143,
130,
126,
114,
93,
118,
125,
114,
82,
94,
88,
70,
63,
60,
58,
66,
60,
68,
54,
38,
37,
32,
41,
36,
35,
29,
25,
27,
28,
30,
17,
11,
12,
16,
13,
10,
9,
4,
13,
3,
7,
3,
1,
1,
0,
0,
0,
0,
0,
0,
0,
0,
1,
0,
0,
0,
0,
0,
0,
0,
0,
0,
0,
0,
0,
0,
0,
0,
0,
0,
0,
0,
0,
0,
0,
0,
0,
0,
0,
0,
0,
0,
0,
0,
0,
0,
0,
0,
0,
0,
0,
0,
0,
0,
0,
0,
0,
0,
0,
0,
0,
0,
0,
0,
0,
0,
0,
0,
0,
0,
0,
0,
0,
0,
0,
0,
0,
0,
0,
0,
0,
0,
0,
0,
0,
0,
0,
0,
0,
0,
0,
0,
0,
0,
0,
0,
0,
0,
0,
0,
0,
0,
0,
0,
0,
0,
0,
0,
0,
0,
0,
0,
0,
0,
0,
0,
0,
0,
0,
0,
0,
0,
0,
0,
0,
0,
0,
0,
0,
0,
0,
0,
0,
0,
0,
0,
0,
0,
0,
0,
0,
0,
0,
0,
0,
0,
0,
0,
0,
0,
0,
0,
0,
0,
0,
0,
0,
#ENDOFDATA   :