File: N132962/Quantification/20 keV/MMM2/SPI MM2 SPI Pentlandite[7][4].msa
#FORMAT      : EMSA/MAS Spectral Data File
#VERSION     : 1.0
#TITLE       : SPI MM2 SPI Pentlandite[7][all]
#DATE        : 13-MAR-2025
#TIME        : 10:40
#OWNER       : Unknown
#NPOINTS     : 4096
#NCOLUMNS    : 1
#XUNITS      : eV
#YUNITS      : counts
#DATATYPE    : Y
#XPERCHAN    : 9.99778
#OFFSET      : 1.69135
#BEAMKV      : 20
#SIGNALTYPE  : EDS
#ELEVANGLE   : 35
#AZIMANGLE   : 0
#LIVETIME    : 239.895
#REALTIME    : 260.21
#PROBECUR    : 1.02606
#TAUWIND     : 0
#TDEADLYR    : 0
#TACTLYR     : 0.045
#TALWIND     : 0.025
#CHOFFSET    : 0.0
#XLABEL      : Energy (eV)
#YLABEL      : Counts
#XPOSITION   : 3.97253
#YPOSITION   : -0.33325
#ZPOSITION   : 31.0351
#EDSDET      : SD
##SPECIMEN   : SPI MM2 SPI Pentlandite[7][all]
##D2STDCMP   : SPI Pentlandite,(S:32.89),(Fe:30.88),(Co:0.43),(Ni:35.61)
##DET_HASH   : 12273538-fd48-a23f-0a19-f1e6fa85caef
##CALIB_HASH : 6abaa72c-aa41-8738-0be9-f592914732f3
##WORKING    : 15.0 mm
##DET_NAME   : EDAX All
##DET_MODE   : MediumLE
#SPECTRUM    :
27,
441,
11863,
3322,
13639,
50417,
62880,
3370,
3631,
4185,
4666,
5203,
5643,
5750,
5368,
5757,
62786,
49226,
10371,
3732,
3844,
3844,
3954,
3795,
3584,
3457,
3532,
3354,
3272,
3283,
3260,
3076,
2950,
3407,
2966,
2881,
2681,
2685,
2570,
2521,
2405,
2416,
2331,
2291,
2423,
17255,
50388,
2569,
2018,
2617,
7829,
4738,
2300,
35281,
17476,
1567,
1367,
1481,
2127,
7301,
1852,
1170,
1207,
1136,
1003,
1098,
998,
1008,
992,
1004,
1012,
893,
845,
819,
829,
800,
731,
755,
685,
665,
675,
598,
645,
557,
581,
584,
527,
535,
462,
471,
457,
417,
431,
394,
361,
381,
334,
321,
336,
345,
301,
295,
248,
240,
243,
238,
247,
224,
202,
194,
160,
160,
162,
130,
117,
137,
105,
118,
98,
85,
96,
88,
92,
77,
57,
71,
56,
45,
64,
52,
41,
31,
23,
28,
33,
27,
17,
21,
15,
11,
6,
12,
0,
5,
1,
4,
4,
0,
0,
1,
0,
0,
2,
1,
0,
1,
2,
2,
0,
1,
1,
2,
0,
1,
1,
1,
2,
0,
0,
0,
1,
0,
1,
0,
1,
0,
0,
0,
0,
0,
0,
0,
0,
0,
0,
0,
0,
0,
0,
0,
0,
0,
0,
0,
0,
0,
0,
0,
0,
1,
0,
0,
0,
0,
0,
0,
0,
0,
0,
0,
0,
0,
0,
0,
0,
0,
0,
0,
0,
0,
0,
0,
0,
0,
0,
0,
0,
0,
0,
0,
0,
0,
0,
0,
0,
0,
0,
0,
0,
0,
0,
0,
0,
0,
0,
0,
0,
0,
0,
0,
0,
0,
0,
0,
0,
0,
0,
0,
0,
0,
0,
0,
0,
0,
0,
0,
0,
0,
0,
0,
0,
0,
0,
0,
0,
0,
0,
0,
0,
0,
0,
0,
0,
0,
0,
0,
0,
0,
0,
0,
0,
0,
0,
0,
#ENDOFDATA   :