File: N132962/Quantification/20 keV/MMM2/SPI MM2 Tugtupite[6][4].msa
#FORMAT      : EMSA/MAS Spectral Data File
#VERSION     : 1.0
#TITLE       : SPI MM2 Tugtupite[6][all]
#DATE        : 13-MAR-2025
#TIME        : 13:42
#OWNER       : Unknown
#NPOINTS     : 4096
#NCOLUMNS    : 1
#XUNITS      : eV
#YUNITS      : counts
#DATATYPE    : Y
#XPERCHAN    : 9.99778
#OFFSET      : 1.69135
#BEAMKV      : 20
#SIGNALTYPE  : EDS
#ELEVANGLE   : 35
#AZIMANGLE   : 0
#LIVETIME    : 239.784
#REALTIME    : 255.276
#PROBECUR    : 1.0264
#TAUWIND     : 0
#TDEADLYR    : 0
#TACTLYR     : 0.045
#TALWIND     : 0.025
#CHOFFSET    : 0.0
#XLABEL      : Energy (eV)
#YLABEL      : Counts
#XPOSITION   : -4.53002
#YPOSITION   : 3.53472
#ZPOSITION   : 31.03511
#EDSDET      : SD
##SPECIMEN   : SPI MM2 Tugtupite[6][all]
##DET_HASH   : 12273538-fd48-a23f-0a19-f1e6fa85caef
##CALIB_HASH : 6abaa72c-aa41-8738-0be9-f592914732f3
##WORKING    : 15.0 mm
##DET_NAME   : EDAX All
##DET_MODE   : MediumLE
#SPECTRUM    :
24,
202,
8204,
5123,
51051,
2196,
3628,
29718,
8608,
3237,
6281,
18670,
56136,
26414,
2233,
2444,
2743,
2345,
5164,
30192,
6012,
2191,
2011,
1999,
1923,
1926,
1809,
1682,
1697,
1624,
1584,
1506,
1396,
1396,
1388,
1322,
1247,
1187,
1182,
1158,
1097,
1031,
1030,
953,
972,
964,
1006,
866,
816,
858,
802,
741,
698,
701,
670,
603,
566,
632,
615,
548,
549,
525,
494,
528,
491,
466,
442,
456,
391,
398,
368,
385,
379,
354,
339,
351,
292,
315,
271,
278,
281,
262,
237,
224,
222,
237,
204,
205,
221,
182,
176,
171,
148,
139,
128,
140,
127,
112,
114,
94,
94,
86,
73,
80,
78,
86,
79,
60,
73,
60,
62,
54,
51,
53,
54,
43,
28,
29,
29,
30,
35,
40,
33,
14,
21,
13,
17,
21,
22,
13,
19,
8,
18,
6,
7,
3,
3,
6,
4,
3,
0,
0,
0,
0,
0,
0,
0,
0,
0,
0,
0,
0,
0,
0,
0,
0,
0,
0,
0,
0,
0,
0,
0,
0,
0,
0,
0,
0,
0,
0,
0,
0,
0,
0,
0,
0,
0,
0,
0,
0,
0,
0,
0,
0,
0,
0,
0,
0,
0,
0,
0,
0,
0,
0,
0,
0,
0,
0,
0,
0,
0,
0,
0,
0,
0,
0,
0,
0,
0,
0,
0,
0,
0,
0,
0,
0,
0,
0,
0,
0,
0,
0,
0,
0,
0,
0,
0,
0,
0,
0,
0,
0,
0,
0,
0,
0,
0,
0,
0,
0,
0,
0,
0,
0,
0,
0,
0,
0,
0,
0,
0,
0,
0,
0,
0,
0,
0,
0,
0,
0,
0,
0,
0,
0,
0,
0,
0,
0,
0,
0,
0,
0,
0,
0,
0,
0,
0,
0,
0,
0,
0,
0,
0,
0,
0,
0,
0,
0,
0,
0,
0,
0,
0,
0,
#ENDOFDATA   :