File: N132962/Quantification/20 keV/MMM2/SPI MM2 Sphene[6][4].msa
#FORMAT      : EMSA/MAS Spectral Data File
#VERSION     : 1.0
#TITLE       : SPI MM2 Sphene[6][all]
#DATE        : 13-MAR-2025
#TIME        : 13:05
#OWNER       : Unknown
#NPOINTS     : 4096
#NCOLUMNS    : 1
#XUNITS      : eV
#YUNITS      : counts
#DATATYPE    : Y
#XPERCHAN    : 9.99778
#OFFSET      : 1.69135
#BEAMKV      : 20
#SIGNALTYPE  : EDS
#ELEVANGLE   : 35
#AZIMANGLE   : 0
#LIVETIME    : 239.906
#REALTIME    : 254.889
#PROBECUR    : 1.0263
#TAUWIND     : 0
#TDEADLYR    : 0
#TACTLYR     : 0.045
#TALWIND     : 0.025
#CHOFFSET    : 0.0
#XLABEL      : Energy (eV)
#YLABEL      : Counts
#XPOSITION   : 6.15798
#YPOSITION   : 3.81345
#ZPOSITION   : 31.03512
#EDSDET      : SD
##SPECIMEN   : SPI MM2 Sphene[6][all]
##DET_HASH   : 12273538-fd48-a23f-0a19-f1e6fa85caef
##CALIB_HASH : 6abaa72c-aa41-8738-0be9-f592914732f3
##WORKING    : 15.0 mm
##DET_NAME   : EDAX All
##DET_MODE   : MediumLE
#SPECTRUM    :
24,
193,
13746,
7881,
21727,
2439,
2416,
2854,
3378,
4075,
4865,
6785,
38147,
19386,
4652,
3673,
3783,
3427,
3264,
3298,
3594,
3095,
2988,
3056,
2698,
3260,
55198,
19599,
4701,
10134,
2054,
2693,
61446,
8320,
1992,
9686,
2824,
1465,
1425,
1572,
1270,
1281,
1349,
1225,
1226,
1422,
1804,
1087,
1072,
988,
1081,
1026,
925,
972,
889,
875,
828,
827,
797,
749,
733,
730,
761,
677,
648,
602,
608,
610,
616,
522,
562,
521,
495,
492,
509,
449,
447,
435,
403,
367,
400,
369,
320,
343,
284,
290,
299,
299,
247,
257,
214,
241,
202,
217,
210,
187,
190,
200,
185,
168,
149,
149,
135,
131,
135,
107,
112,
105,
109,
90,
103,
95,
82,
69,
82,
65,
71,
49,
68,
40,
44,
39,
44,
30,
35,
36,
30,
32,
26,
14,
19,
12,
20,
12,
10,
10,
11,
6,
7,
2,
1,
2,
2,
0,
0,
1,
3,
1,
0,
1,
0,
0,
0,
0,
1,
0,
0,
0,
0,
0,
0,
0,
0,
0,
0,
0,
0,
0,
0,
1,
0,
0,
0,
0,
0,
0,
0,
0,
0,
0,
0,
0,
0,
0,
0,
0,
0,
0,
0,
0,
0,
0,
0,
0,
0,
0,
0,
0,
0,
0,
0,
0,
0,
0,
0,
0,
0,
0,
0,
0,
0,
0,
0,
0,
0,
0,
0,
0,
0,
0,
0,
0,
0,
0,
0,
0,
0,
0,
0,
0,
0,
0,
0,
0,
0,
0,
0,
0,
0,
0,
0,
0,
0,
0,
0,
0,
0,
0,
0,
0,
0,
0,
0,
0,
0,
0,
0,
0,
0,
0,
0,
0,
0,
0,
0,
0,
0,
0,
0,
0,
0,
0,
0,
0,
0,
0,
0,
0,
0,
0,
0,
0,
0,
0,
0,
0,
0,
0,
0,
0,
0,
0,
0,
0,
#ENDOFDATA   :