File: N132962/Quantification/20 keV/MMM2/SPI MM2 MgAl2O4[7][4].msa
#FORMAT      : EMSA/MAS Spectral Data File
#VERSION     : 1.0
#TITLE       : SPI MM2 MgAl2O4[7][all]
#DATE        : 13-MAR-2025
#TIME        : 09:35
#OWNER       : Unknown
#NPOINTS     : 4096
#NCOLUMNS    : 1
#XUNITS      : eV
#YUNITS      : counts
#DATATYPE    : Y
#XPERCHAN    : 9.99778
#OFFSET      : 1.69135
#BEAMKV      : 20
#SIGNALTYPE  : EDS
#ELEVANGLE   : 35
#AZIMANGLE   : 0
#LIVETIME    : 239.798
#REALTIME    : 256.361
#PROBECUR    : 1.02582
#TAUWIND     : 0
#TDEADLYR    : 0
#TACTLYR     : 0.045
#TALWIND     : 0.025
#CHOFFSET    : 0.0
#XLABEL      : Energy (eV)
#YLABEL      : Counts
#XPOSITION   : 0.79171
#YPOSITION   : -5.34418
#ZPOSITION   : 31.03509
#EDSDET      : SD
##SPECIMEN   : SPI MM2 MgAl2O4[7][all]
##D2STDCMP   : MgAl2O4,(O:44.9839),(Mg:17.0844),(Al:37.9316)
##DET_HASH   : 12273538-fd48-a23f-0a19-f1e6fa85caef
##CALIB_HASH : 6abaa72c-aa41-8738-0be9-f592914732f3
##WORKING    : 15.0 mm
##DET_NAME   : EDAX All
##DET_MODE   : MediumLE
#SPECTRUM    :
24,
193,
8240,
6677,
69767,
2070,
2804,
3660,
5297,
152628,
19614,
91567,
2092,
2391,
2498,
2148,
2197,
2269,
2253,
2155,
2330,
2454,
2125,
1915,
1889,
1784,
1749,
1667,
1663,
1562,
1508,
1457,
1375,
1372,
1325,
1293,
1273,
1238,
1140,
1156,
1095,
999,
1048,
961,
945,
954,
934,
856,
781,
791,
752,
726,
658,
696,
697,
650,
628,
602,
581,
571,
553,
576,
506,
454,
483,
428,
419,
412,
386,
384,
363,
355,
369,
357,
328,
318,
294,
297,
268,
249,
255,
248,
223,
201,
216,
228,
187,
192,
172,
178,
201,
156,
151,
139,
118,
131,
130,
123,
111,
111,
88,
107,
88,
66,
84,
80,
65,
76,
62,
54,
53,
56,
51,
52,
45,
40,
20,
29,
41,
23,
35,
26,
21,
22,
22,
26,
20,
11,
17,
11,
11,
12,
11,
9,
6,
4,
7,
6,
5,
5,
3,
2,
1,
1,
0,
0,
1,
0,
0,
0,
0,
0,
0,
0,
1,
0,
0,
0,
0,
0,
0,
0,
0,
0,
0,
0,
0,
0,
0,
0,
0,
0,
0,
0,
0,
0,
0,
0,
0,
0,
0,
0,
0,
0,
0,
1,
0,
0,
0,
0,
0,
0,
0,
0,
1,
0,
0,
0,
0,
0,
0,
0,
0,
0,
0,
0,
0,
0,
0,
0,
0,
0,
0,
0,
0,
0,
0,
0,
0,
0,
0,
0,
0,
0,
0,
0,
0,
0,
0,
0,
0,
0,
0,
0,
0,
0,
0,
0,
0,
0,
0,
0,
0,
0,
0,
0,
0,
0,
0,
0,
0,
0,
0,
0,
0,
0,
0,
0,
0,
0,
0,
0,
0,
0,
0,
0,
0,
0,
0,
0,
0,
0,
0,
0,
0,
0,
0,
0,
0,
0,
0,
0,
0,
0,
0,
0,
0,
0,
0,
0,
0,
0,
0,
0,
#ENDOFDATA   :