File: N132962/Quantification/20 keV/MMM2/SPI MM2 SPI Obsidian[1][4].msa
#FORMAT      : EMSA/MAS Spectral Data File
#VERSION     : 1.0
#TITLE       : SPI MM2 SPI Obsidian[1][all]
#DATE        : 13-MAR-2025
#TIME        : 09:56
#OWNER       : Unknown
#NPOINTS     : 4096
#NCOLUMNS    : 1
#XUNITS      : eV
#YUNITS      : counts
#DATATYPE    : Y
#XPERCHAN    : 9.99778
#OFFSET      : 1.69135
#BEAMKV      : 20
#SIGNALTYPE  : EDS
#ELEVANGLE   : 35
#AZIMANGLE   : 0
#LIVETIME    : 239.811
#REALTIME    : 256.239
#PROBECUR    : 1.02627
#TAUWIND     : 0
#TDEADLYR    : 0
#TACTLYR     : 0.045
#TALWIND     : 0.025
#CHOFFSET    : 0.0
#XLABEL      : Energy (eV)
#YLABEL      : Counts
#XPOSITION   : 0.09595
#YPOSITION   : -2.97747
#ZPOSITION   : 31.03509
#EDSDET      : SD
##SPECIMEN   : SPI MM2 SPI Obsidian[1][all]
##D2STDCMP   : SPI Obsidian,(O:49.01),(Na:2.77),(Mg:0.06),(Al:6.9),(Si:35.66),(K:3.58),(Ca:0.63),(Ti:0.06),(Mn:0.04),(Fe:0.59),5.0
##DET_HASH   : 12273538-fd48-a23f-0a19-f1e6fa85caef
##CALIB_HASH : 6abaa72c-aa41-8738-0be9-f592914732f3
##WORKING    : 15.0 mm
##DET_NAME   : EDAX All
##DET_MODE   : MediumLE
#SPECTRUM    :
26,
169,
8624,
5699,
57681,
2667,
2587,
6389,
4201,
4605,
8145,
25181,
88437,
40624,
2360,
2250,
2903,
2296,
2166,
2272,
2161,
2126,
2131,
4230,
12125,
2853,
4251,
2183,
1747,
1854,
1484,
1515,
1714,
1497,
1441,
1417,
1322,
1262,
1210,
1170,
1112,
1087,
1036,
1016,
937,
1213,
1853,
875,
862,
826,
899,
855,
753,
733,
712,
683,
616,
602,
543,
573,
521,
534,
539,
525,
467,
462,
466,
423,
422,
427,
396,
359,
394,
365,
347,
333,
338,
312,
296,
283,
272,
235,
235,
221,
229,
222,
233,
184,
184,
164,
153,
174,
150,
155,
160,
148,
132,
136,
118,
130,
130,
96,
105,
80,
90,
81,
69,
81,
50,
59,
67,
50,
63,
56,
59,
49,
40,
32,
33,
33,
32,
25,
25,
28,
23,
23,
14,
20,
13,
13,
13,
15,
6,
6,
6,
8,
6,
4,
5,
2,
0,
2,
1,
1,
0,
0,
0,
0,
0,
0,
0,
0,
0,
0,
0,
0,
0,
0,
0,
1,
0,
0,
0,
0,
0,
0,
0,
0,
0,
0,
0,
0,
0,
1,
0,
0,
0,
0,
0,
0,
0,
0,
0,
0,
0,
0,
0,
0,
0,
0,
0,
0,
0,
0,
0,
0,
0,
0,
0,
0,
0,
0,
0,
0,
0,
0,
0,
0,
0,
0,
0,
0,
0,
0,
0,
0,
0,
0,
0,
0,
0,
0,
0,
0,
0,
0,
0,
0,
0,
0,
0,
0,
0,
0,
0,
0,
0,
0,
0,
0,
0,
0,
0,
0,
0,
0,
0,
0,
0,
0,
0,
0,
0,
0,
0,
0,
0,
0,
0,
0,
0,
0,
0,
0,
0,
0,
0,
0,
0,
0,
0,
0,
0,
0,
0,
0,
0,
0,
0,
0,
0,
0,
0,
0,
0,
0,
0,
0,
0,
0,
0,
0,
0,
0,
#ENDOFDATA   :