File: N132962/Quantification/20 keV/MMM2/SPI MM2 Zircon[5][4].msa
#FORMAT      : EMSA/MAS Spectral Data File
#VERSION     : 1.0
#TITLE       : SPI MM2 Zircon[5][all]
#DATE        : 13-MAR-2025
#TIME        : 13:50
#OWNER       : Unknown
#NPOINTS     : 4096
#NCOLUMNS    : 1
#XUNITS      : eV
#YUNITS      : counts
#DATATYPE    : Y
#XPERCHAN    : 9.99778
#OFFSET      : 1.69135
#BEAMKV      : 20
#SIGNALTYPE  : EDS
#ELEVANGLE   : 35
#AZIMANGLE   : 0
#LIVETIME    : 239.387
#REALTIME    : 256.9441
#PROBECUR    : 1.0264
#TAUWIND     : 0
#TDEADLYR    : 0
#TACTLYR     : 0.045
#TALWIND     : 0.025
#CHOFFSET    : 0.0
#XLABEL      : Energy (eV)
#YLABEL      : Counts
#XPOSITION   : -2.73758
#YPOSITION   : 6.68983
#ZPOSITION   : 31.03511
#EDSDET      : SD
##SPECIMEN   : SPI MM2 Zircon[5][all]
##DET_HASH   : 12273538-fd48-a23f-0a19-f1e6fa85caef
##CALIB_HASH : 6abaa72c-aa41-8738-0be9-f592914732f3
##WORKING    : 15.0 mm
##DET_NAME   : EDAX All
##DET_MODE   : MediumLE
#SPECTRUM    :
28,
696,
14796,
4489,
25301,
3382,
4319,
4932,
5569,
6318,
7102,
7824,
50985,
32645,
27893,
101744,
12206,
3400,
4195,
3205,
3054,
3114,
3220,
3124,
3147,
3210,
3111,
3211,
3092,
2976,
2971,
2704,
2642,
2626,
2469,
2481,
2528,
2374,
2345,
2216,
2182,
2147,
2088,
2049,
1916,
1879,
2037,
1837,
1756,
1768,
1680,
1595,
1582,
1656,
1597,
1507,
1664,
1458,
1233,
1316,
1193,
1170,
1167,
1139,
1223,
1201,
1056,
1011,
1010,
924,
912,
875,
826,
846,
795,
828,
780,
674,
738,
721,
636,
657,
571,
588,
573,
505,
515,
491,
466,
445,
392,
415,
396,
402,
391,
354,
325,
338,
282,
285,
285,
271,
253,
237,
238,
205,
219,
201,
188,
178,
173,
178,
443,
400,
150,
129,
112,
113,
98,
93,
80,
95,
68,
64,
76,
75,
102,
81,
41,
41,
31,
28,
27,
23,
29,
15,
14,
18,
19,
9,
11,
4,
2,
3,
1,
1,
1,
0,
2,
0,
0,
1,
1,
0,
0,
0,
0,
0,
1,
0,
0,
0,
0,
0,
1,
0,
0,
0,
0,
1,
0,
0,
0,
1,
0,
0,
0,
0,
0,
0,
0,
0,
1,
0,
1,
0,
0,
0,
0,
0,
0,
0,
0,
0,
0,
0,
0,
0,
0,
0,
0,
0,
0,
0,
0,
0,
0,
0,
0,
0,
0,
0,
0,
0,
0,
0,
0,
0,
0,
0,
0,
0,
0,
0,
0,
0,
0,
0,
0,
0,
0,
0,
0,
0,
0,
0,
0,
0,
0,
0,
0,
0,
0,
0,
0,
0,
0,
0,
0,
0,
0,
0,
0,
0,
0,
0,
0,
0,
0,
0,
0,
0,
0,
0,
0,
0,
0,
0,
0,
0,
0,
0,
0,
0,
0,
0,
0,
0,
0,
0,
0,
0,
0,
0,
0,
0,
0,
0,
0,
0,
0,
0,
0,
0,
#ENDOFDATA   :