File: N132962/Quantification/20 keV/MMM2/SPI MM2 Quartz[7][4].msa
#FORMAT      : EMSA/MAS Spectral Data File
#VERSION     : 1.0
#TITLE       : SPI MM2 Quartz[7][all]
#DATE        : 13-MAR-2025
#TIME        : 12:38
#OWNER       : Unknown
#NPOINTS     : 4096
#NCOLUMNS    : 1
#XUNITS      : eV
#YUNITS      : counts
#DATATYPE    : Y
#XPERCHAN    : 9.99778
#OFFSET      : 1.69135
#BEAMKV      : 20
#SIGNALTYPE  : EDS
#ELEVANGLE   : 35
#AZIMANGLE   : 0
#LIVETIME    : 239.846
#REALTIME    : 257.713
#PROBECUR    : 1.02627
#TAUWIND     : 0
#TDEADLYR    : 0
#TACTLYR     : 0.045
#TALWIND     : 0.025
#CHOFFSET    : 0.0
#XLABEL      : Energy (eV)
#YLABEL      : Counts
#XPOSITION   : 2.42408
#YPOSITION   : 2.20814
#ZPOSITION   : 31.03511
#EDSDET      : SD
##SPECIMEN   : SPI MM2 Quartz[7][all]
##D2STDCMP   : Quartz,(O:53.2565),(Si:46.7435),2.65
##DET_HASH   : 12273538-fd48-a23f-0a19-f1e6fa85caef
##CALIB_HASH : 6abaa72c-aa41-8738-0be9-f592914732f3
##WORKING    : 15.0 mm
##DET_NAME   : EDAX All
##DET_MODE   : MediumLE
#SPECTRUM    :
37,
188,
8518,
6223,
65250,
1955,
2379,
2998,
3627,
4108,
4891,
6133,
129604,
58378,
1951,
1995,
3284,
2080,
1965,
2109,
2066,
2022,
1923,
1953,
1924,
2957,
1798,
1661,
1662,
1615,
1571,
1458,
1373,
1387,
1369,
1341,
1218,
1212,
1215,
1151,
1094,
1018,
991,
1029,
971,
904,
940,
800,
946,
720,
741,
694,
761,
717,
743,
669,
623,
642,
577,
559,
587,
508,
512,
465,
464,
446,
410,
402,
451,
393,
383,
355,
350,
326,
355,
303,
302,
301,
275,
260,
259,
255,
229,
239,
218,
190,
196,
191,
212,
185,
161,
153,
163,
147,
141,
124,
127,
106,
105,
106,
98,
117,
96,
97,
78,
61,
69,
72,
59,
70,
55,
59,
37,
46,
48,
43,
40,
32,
41,
29,
28,
24,
37,
18,
19,
15,
29,
15,
13,
16,
12,
6,
6,
6,
9,
6,
6,
5,
3,
1,
1,
0,
0,
0,
0,
0,
0,
0,
0,
0,
0,
0,
0,
0,
0,
0,
0,
0,
0,
0,
0,
0,
0,
0,
0,
0,
0,
0,
0,
0,
0,
0,
0,
0,
0,
0,
1,
0,
0,
0,
0,
0,
0,
0,
0,
0,
0,
0,
0,
0,
0,
0,
0,
0,
0,
0,
0,
0,
0,
0,
0,
0,
0,
0,
0,
0,
0,
0,
0,
0,
0,
0,
0,
0,
0,
0,
0,
0,
0,
0,
0,
0,
0,
0,
0,
0,
0,
0,
0,
0,
0,
0,
0,
0,
0,
0,
0,
0,
0,
0,
0,
0,
0,
0,
0,
0,
0,
0,
0,
0,
0,
0,
0,
0,
0,
0,
0,
0,
0,
0,
0,
0,
0,
0,
0,
0,
0,
0,
0,
0,
0,
0,
0,
0,
0,
0,
0,
0,
0,
0,
0,
0,
0,
0,
0,
0,
0,
0,
0,
0,
0,
0,
0,
0,
#ENDOFDATA   :