File: N132962/Quantification/20 keV/MMM2/SPI MM2 SPI Obsidian[4][4].msa
#FORMAT      : EMSA/MAS Spectral Data File
#VERSION     : 1.0
#TITLE       : SPI MM2 SPI Obsidian[4][all]
#DATE        : 13-MAR-2025
#TIME        : 09:59
#OWNER       : Unknown
#NPOINTS     : 4096
#NCOLUMNS    : 1
#XUNITS      : eV
#YUNITS      : counts
#DATATYPE    : Y
#XPERCHAN    : 9.99778
#OFFSET      : 1.69135
#BEAMKV      : 20
#SIGNALTYPE  : EDS
#ELEVANGLE   : 35
#AZIMANGLE   : 0
#LIVETIME    : 239.863
#REALTIME    : 256.299
#PROBECUR    : 1.02627
#TAUWIND     : 0
#TDEADLYR    : 0
#TACTLYR     : 0.045
#TALWIND     : 0.025
#CHOFFSET    : 0.0
#XLABEL      : Energy (eV)
#YLABEL      : Counts
#XPOSITION   : 0.05713
#YPOSITION   : -3.01833
#ZPOSITION   : 31.03509
#EDSDET      : SD
##SPECIMEN   : SPI MM2 SPI Obsidian[4][all]
##D2STDCMP   : SPI Obsidian,(O:49.01),(Na:2.77),(Mg:0.06),(Al:6.9),(Si:35.66),(K:3.58),(Ca:0.63),(Ti:0.06),(Mn:0.04),(Fe:0.59),5.0
##DET_HASH   : 12273538-fd48-a23f-0a19-f1e6fa85caef
##CALIB_HASH : 6abaa72c-aa41-8738-0be9-f592914732f3
##WORKING    : 15.0 mm
##DET_NAME   : EDAX All
##DET_MODE   : MediumLE
#SPECTRUM    :
30,
198,
8563,
5650,
57853,
2658,
2725,
6462,
4172,
4644,
8080,
25086,
88279,
40965,
2285,
2111,
2870,
2274,
2223,
2268,
2149,
2151,
2115,
4223,
12126,
2831,
4344,
2133,
1703,
1857,
1600,
1487,
1832,
1372,
1435,
1390,
1365,
1278,
1176,
1163,
1103,
1082,
1094,
1054,
1038,
1242,
1856,
894,
813,
852,
856,
839,
686,
778,
705,
679,
647,
619,
623,
571,
528,
545,
509,
522,
479,
434,
441,
429,
419,
407,
373,
367,
379,
356,
355,
313,
307,
317,
297,
296,
254,
240,
235,
225,
230,
217,
206,
184,
206,
178,
186,
153,
168,
149,
141,
138,
125,
135,
130,
133,
110,
95,
101,
89,
67,
87,
67,
81,
81,
69,
53,
71,
48,
53,
44,
38,
46,
30,
41,
34,
33,
25,
28,
22,
13,
16,
21,
12,
6,
21,
16,
7,
5,
7,
9,
8,
4,
5,
6,
3,
2,
0,
1,
0,
0,
1,
0,
0,
0,
0,
0,
1,
0,
0,
0,
1,
0,
0,
0,
0,
0,
0,
0,
0,
0,
0,
0,
0,
0,
0,
0,
0,
0,
0,
0,
0,
0,
0,
0,
0,
0,
0,
0,
0,
0,
0,
0,
0,
0,
0,
0,
0,
0,
0,
0,
0,
0,
0,
0,
0,
0,
0,
0,
0,
0,
0,
0,
0,
0,
0,
0,
0,
0,
0,
0,
0,
0,
0,
0,
0,
0,
0,
0,
0,
0,
0,
0,
0,
0,
0,
0,
0,
0,
0,
0,
0,
0,
0,
0,
0,
0,
0,
0,
0,
0,
0,
0,
0,
0,
0,
0,
0,
0,
0,
0,
0,
0,
0,
0,
0,
0,
0,
0,
0,
0,
0,
0,
0,
0,
0,
0,
0,
0,
0,
0,
0,
0,
0,
0,
0,
0,
0,
0,
0,
0,
0,
0,
0,
0,
0,
0,
0,
0,
0,
#ENDOFDATA   :