File: N132962/Quantification/20 keV/MMM2/SPI MM2 Spessartine[2][4].msa
#FORMAT      : EMSA/MAS Spectral Data File
#VERSION     : 1.0
#TITLE       : SPI MM2 Spessartine[2][all]
#DATE        : 13-MAR-2025
#TIME        : 12:05
#OWNER       : Unknown
#NPOINTS     : 4096
#NCOLUMNS    : 1
#XUNITS      : eV
#YUNITS      : counts
#DATATYPE    : Y
#XPERCHAN    : 9.99778
#OFFSET      : 1.69135
#BEAMKV      : 20
#SIGNALTYPE  : EDS
#ELEVANGLE   : 35
#AZIMANGLE   : 0
#LIVETIME    : 239.751
#REALTIME    : 256.042
#PROBECUR    : 1.02616
#TAUWIND     : 0
#TDEADLYR    : 0
#TACTLYR     : 0.045
#TALWIND     : 0.025
#CHOFFSET    : 0.0
#XLABEL      : Energy (eV)
#YLABEL      : Counts
#XPOSITION   : -5.88833
#YPOSITION   : 1.56441
#ZPOSITION   : 31.03511
#EDSDET      : SD
##SPECIMEN   : SPI MM2 Spessartine[2][all]
##DET_HASH   : 12273538-fd48-a23f-0a19-f1e6fa85caef
##CALIB_HASH : 6abaa72c-aa41-8738-0be9-f592914732f3
##WORKING    : 15.0 mm
##DET_NAME   : EDAX All
##DET_MODE   : MediumLE
#SPECTRUM    :
25,
218,
10072,
7606,
70387,
5394,
2324,
2751,
3168,
4027,
8828,
29772,
36634,
18635,
3204,
3071,
3285,
3143,
3056,
3040,
2973,
2807,
2792,
2898,
2645,
2756,
3169,
2625,
2339,
2487,
2363,
2076,
2096,
2018,
1921,
1859,
1782,
1775,
1686,
1610,
1650,
3421,
70045,
7137,
1444,
2102,
9477,
3667,
1112,
1053,
1248,
1025,
959,
996,
987,
938,
915,
846,
788,
772,
849,
703,
672,
708,
678,
648,
616,
605,
572,
587,
549,
525,
539,
520,
479,
453,
467,
444,
421,
398,
376,
363,
353,
340,
382,
308,
315,
310,
278,
257,
262,
260,
229,
234,
213,
198,
202,
187,
184,
184,
172,
176,
154,
148,
127,
105,
133,
129,
107,
103,
93,
102,
77,
66,
65,
68,
71,
55,
53,
47,
43,
42,
42,
40,
30,
25,
31,
30,
24,
25,
20,
17,
15,
16,
12,
7,
4,
10,
4,
3,
7,
1,
1,
1,
0,
0,
0,
0,
0,
0,
0,
0,
1,
0,
1,
1,
1,
1,
0,
1,
0,
0,
0,
0,
0,
1,
0,
0,
0,
0,
0,
0,
0,
0,
0,
0,
0,
0,
0,
0,
1,
0,
0,
0,
0,
0,
0,
0,
0,
0,
0,
0,
0,
0,
0,
0,
0,
0,
0,
0,
0,
0,
0,
0,
0,
0,
0,
0,
0,
0,
0,
0,
0,
0,
0,
0,
0,
0,
0,
0,
0,
0,
0,
0,
0,
0,
0,
0,
0,
0,
0,
0,
0,
0,
0,
0,
0,
0,
0,
0,
0,
0,
0,
0,
0,
0,
0,
0,
0,
0,
0,
0,
0,
0,
0,
0,
0,
0,
0,
0,
0,
0,
0,
0,
0,
0,
0,
0,
0,
0,
0,
0,
0,
0,
0,
0,
0,
0,
0,
0,
0,
0,
0,
0,
0,
0,
0,
0,
0,
0,
0,
0,
0,
0,
#ENDOFDATA   :