File: N132962/Quantification/20 keV/MMM2/SPI MM2 SPI Pollucite[6][4].msa
#FORMAT      : EMSA/MAS Spectral Data File
#VERSION     : 1.0
#TITLE       : SPI MM2 SPI Pollucite[6][all]
#DATE        : 13-MAR-2025
#TIME        : 11:06
#OWNER       : Unknown
#NPOINTS     : 4096
#NCOLUMNS    : 1
#XUNITS      : eV
#YUNITS      : counts
#DATATYPE    : Y
#XPERCHAN    : 9.99778
#OFFSET      : 1.69135
#BEAMKV      : 20
#SIGNALTYPE  : EDS
#ELEVANGLE   : 35
#AZIMANGLE   : 0
#LIVETIME    : 239.497
#REALTIME    : 256.752
#PROBECUR    : 1.02609
#TAUWIND     : 0
#TDEADLYR    : 0
#TACTLYR     : 0.045
#TALWIND     : 0.025
#CHOFFSET    : 0.0
#XLABEL      : Energy (eV)
#YLABEL      : Counts
#XPOSITION   : -3.9987
#YPOSITION   : -1.16055
#ZPOSITION   : 31.0351
#EDSDET      : SD
##SPECIMEN   : SPI MM2 SPI Pollucite[6][all]
##D2STDCMP   : SPI Pollucite,(Li:0.05),(O:35.94),(Na:1.5),(Al:9.06),(Si:22.2),(K:0.05),(Rb:0.17),(Cs:32.3)
##DET_HASH   : 12273538-fd48-a23f-0a19-f1e6fa85caef
##CALIB_HASH : 6abaa72c-aa41-8738-0be9-f592914732f3
##WORKING    : 15.0 mm
##DET_NAME   : EDAX All
##DET_MODE   : MediumLE
#SPECTRUM    :
30,
266,
11550,
7637,
65525,
4893,
3563,
5640,
4084,
4372,
8178,
23307,
45919,
22608,
3740,
3715,
4044,
3701,
3996,
3645,
3743,
3811,
3575,
3625,
3415,
3421,
3238,
4688,
3131,
3152,
13505,
28352,
3443,
24094,
6675,
8033,
3516,
2674,
4411,
2563,
2746,
1957,
1822,
1793,
1609,
1730,
1825,
1560,
1583,
1565,
1428,
1428,
1398,
1412,
1343,
1179,
1201,
1238,
1160,
1172,
1118,
1066,
1083,
1034,
968,
976,
951,
918,
860,
830,
849,
786,
784,
800,
696,
701,
652,
659,
668,
635,
632,
599,
528,
474,
517,
505,
462,
460,
418,
427,
395,
396,
355,
372,
299,
331,
282,
321,
268,
242,
261,
228,
210,
211,
226,
186,
193,
170,
169,
173,
159,
152,
134,
132,
132,
104,
120,
91,
102,
67,
80,
78,
69,
66,
54,
42,
48,
55,
39,
48,
34,
36,
25,
16,
20,
24,
21,
9,
13,
7,
7,
4,
3,
2,
0,
0,
1,
0,
0,
0,
0,
0,
0,
0,
1,
0,
2,
0,
0,
0,
0,
0,
0,
0,
0,
1,
0,
0,
0,
1,
0,
0,
0,
0,
0,
0,
0,
0,
0,
0,
0,
1,
0,
0,
0,
0,
0,
0,
0,
0,
0,
0,
0,
0,
0,
0,
0,
0,
0,
0,
0,
0,
0,
0,
0,
0,
0,
0,
0,
0,
0,
0,
0,
0,
0,
0,
0,
1,
0,
0,
0,
0,
0,
0,
0,
0,
0,
0,
0,
0,
0,
0,
0,
0,
0,
0,
0,
0,
0,
0,
0,
0,
0,
0,
0,
0,
0,
0,
0,
0,
0,
0,
0,
0,
0,
0,
0,
0,
0,
0,
0,
0,
0,
0,
0,
0,
0,
0,
0,
0,
0,
0,
0,
0,
0,
0,
0,
0,
0,
0,
0,
0,
0,
0,
0,
0,
0,
0,
0,
0,
0,
0,
0,
0,
#ENDOFDATA   :