File: N132962/Quantification/20 keV/MMM2/SPI MM2 SPI Magnetite[0][4].msa
#FORMAT      : EMSA/MAS Spectral Data File
#VERSION     : 1.0
#TITLE       : SPI MM2 SPI Magnetite[0][all]
#DATE        : 13-MAR-2025
#TIME        : 09:17
#OWNER       : Unknown
#NPOINTS     : 4096
#NCOLUMNS    : 1
#XUNITS      : eV
#YUNITS      : counts
#DATATYPE    : Y
#XPERCHAN    : 9.99778
#OFFSET      : 1.69135
#BEAMKV      : 20
#SIGNALTYPE  : EDS
#ELEVANGLE   : 35
#AZIMANGLE   : 0
#LIVETIME    : 239.903
#REALTIME    : 256.872
#PROBECUR    : 1.02582
#TAUWIND     : 0
#TDEADLYR    : 0
#TACTLYR     : 0.045
#TALWIND     : 0.025
#CHOFFSET    : 0.0
#XLABEL      : Energy (eV)
#YLABEL      : Counts
#XPOSITION   : 3.902
#YPOSITION   : -4.178
#ZPOSITION   : 31.03509
#EDSDET      : SD
##SPECIMEN   : SPI MM2 SPI Magnetite[0][all]
##D2STDCMP   : SPI Magnetite,(O:27.53),(Si:0.01),(Mn:0.18),(Fe:71.88)
##DET_HASH   : 12273538-fd48-a23f-0a19-f1e6fa85caef
##CALIB_HASH : 6abaa72c-aa41-8738-0be9-f592914732f3
##WORKING    : 15.0 mm
##DET_NAME   : EDAX All
##DET_MODE   : MediumLE
#SPECTRUM    :
18,
290,
12007,
9433,
66290,
51849,
2419,
2628,
2832,
3434,
3835,
4404,
4697,
4796,
4215,
4358,
4453,
4449,
4418,
4183,
4139,
3993,
4058,
3846,
3638,
3503,
3442,
3325,
3267,
3091,
3026,
2894,
2923,
3167,
2762,
2696,
2589,
2447,
2494,
2405,
2258,
2132,
2568,
2200,
2440,
36425,
109610,
2987,
1855,
2401,
14492,
7794,
1243,
1240,
1273,
1175,
1203,
1068,
1102,
1107,
1016,
1018,
1017,
903,
995,
891,
849,
852,
861,
833,
683,
810,
749,
746,
726,
655,
622,
633,
596,
583,
609,
501,
540,
491,
508,
441,
465,
461,
431,
422,
367,
440,
383,
359,
324,
315,
327,
309,
277,
251,
238,
252,
213,
238,
178,
165,
190,
163,
158,
143,
159,
125,
111,
116,
117,
109,
90,
93,
89,
96,
90,
74,
76,
75,
62,
63,
60,
32,
47,
37,
36,
30,
25,
22,
14,
20,
11,
17,
11,
20,
6,
6,
4,
0,
2,
2,
0,
4,
1,
0,
1,
0,
1,
3,
0,
0,
1,
2,
0,
0,
0,
1,
0,
0,
1,
0,
0,
0,
0,
0,
0,
0,
0,
0,
0,
0,
1,
0,
0,
0,
0,
0,
0,
0,
0,
1,
0,
0,
0,
0,
0,
0,
0,
0,
0,
0,
0,
0,
0,
0,
0,
0,
0,
0,
0,
0,
0,
0,
0,
0,
0,
0,
0,
0,
0,
0,
0,
0,
0,
0,
0,
0,
0,
0,
0,
0,
0,
0,
0,
0,
0,
0,
0,
0,
0,
0,
0,
0,
0,
0,
0,
0,
0,
0,
0,
0,
0,
0,
0,
0,
0,
0,
0,
0,
0,
0,
0,
0,
0,
0,
0,
0,
0,
0,
0,
0,
0,
0,
0,
0,
0,
0,
0,
0,
0,
0,
0,
0,
0,
0,
0,
0,
0,
0,
0,
0,
0,
0,
0,
0,
0,
0,
0,
0,
#ENDOFDATA   :