File: N132962/Quantification/20 keV/MMM2/SPI MM2 SPI Pentlandite[3][4].msa
#FORMAT      : EMSA/MAS Spectral Data File
#VERSION     : 1.0
#TITLE       : SPI MM2 SPI Pentlandite[3][all]
#DATE        : 13-MAR-2025
#TIME        : 10:35
#OWNER       : Unknown
#NPOINTS     : 4096
#NCOLUMNS    : 1
#XUNITS      : eV
#YUNITS      : counts
#DATATYPE    : Y
#XPERCHAN    : 9.99778
#OFFSET      : 1.69135
#BEAMKV      : 20
#SIGNALTYPE  : EDS
#ELEVANGLE   : 35
#AZIMANGLE   : 0
#LIVETIME    : 239.952
#REALTIME    : 260.264
#PROBECUR    : 1.02606
#TAUWIND     : 0
#TDEADLYR    : 0
#TACTLYR     : 0.045
#TALWIND     : 0.025
#CHOFFSET    : 0.0
#XLABEL      : Energy (eV)
#YLABEL      : Counts
#XPOSITION   : 3.93894
#YPOSITION   : -0.37837
#ZPOSITION   : 31.0351
#EDSDET      : SD
##SPECIMEN   : SPI MM2 SPI Pentlandite[3][all]
##D2STDCMP   : SPI Pentlandite,(S:32.89),(Fe:30.88),(Co:0.43),(Ni:35.61)
##DET_HASH   : 12273538-fd48-a23f-0a19-f1e6fa85caef
##CALIB_HASH : 6abaa72c-aa41-8738-0be9-f592914732f3
##WORKING    : 15.0 mm
##DET_NAME   : EDAX All
##DET_MODE   : MediumLE
#SPECTRUM    :
26,
472,
11643,
3377,
13639,
50080,
62782,
3483,
3452,
4095,
4584,
5199,
5698,
5866,
5325,
5699,
62294,
48942,
10514,
3870,
3814,
3848,
3855,
3682,
3680,
3530,
3415,
3363,
3331,
3272,
3185,
3167,
3089,
3489,
2955,
2860,
2771,
2715,
2646,
2535,
2411,
2481,
2198,
2312,
2447,
17160,
50646,
2511,
1939,
2565,
8111,
4708,
2292,
35170,
17202,
1609,
1477,
1484,
2162,
7308,
1810,
1102,
1267,
1117,
1036,
1010,
1057,
1023,
982,
987,
998,
892,
902,
808,
812,
774,
802,
705,
678,
656,
694,
670,
644,
585,
555,
564,
526,
503,
520,
493,
436,
424,
414,
391,
357,
353,
351,
358,
325,
323,
317,
271,
255,
252,
249,
229,
223,
232,
201,
171,
160,
190,
163,
150,
128,
135,
125,
125,
105,
83,
69,
75,
94,
74,
56,
65,
67,
40,
43,
41,
49,
30,
22,
40,
32,
16,
24,
17,
10,
16,
6,
6,
3,
2,
2,
1,
2,
2,
2,
2,
3,
1,
2,
1,
0,
2,
0,
1,
0,
1,
1,
1,
0,
1,
0,
0,
0,
0,
0,
0,
0,
0,
0,
0,
0,
0,
0,
0,
1,
0,
0,
0,
0,
0,
1,
0,
0,
0,
0,
0,
0,
0,
0,
0,
0,
0,
0,
0,
0,
0,
0,
0,
0,
0,
0,
0,
0,
0,
0,
0,
0,
0,
0,
1,
0,
0,
0,
0,
0,
0,
0,
0,
0,
0,
0,
0,
0,
0,
0,
0,
0,
0,
0,
0,
0,
0,
0,
0,
0,
0,
0,
0,
0,
0,
0,
0,
0,
0,
0,
0,
0,
0,
0,
0,
0,
0,
0,
0,
0,
0,
0,
0,
0,
0,
0,
0,
0,
0,
0,
0,
0,
0,
0,
0,
0,
0,
0,
0,
0,
0,
0,
0,
0,
0,
0,
0,
0,
0,
0,
0,
0,
0,
0,
0,
#ENDOFDATA   :