File: N132962/Quantification/20 keV/MMM2/SPI MM2 SPI Phlogpite[3][4].msa
#FORMAT      : EMSA/MAS Spectral Data File
#VERSION     : 1.0
#TITLE       : SPI MM2 SPI Phlogpite[3][all]
#DATE        : 13-MAR-2025
#TIME        : 10:44
#OWNER       : Unknown
#NPOINTS     : 4096
#NCOLUMNS    : 1
#XUNITS      : eV
#YUNITS      : counts
#DATATYPE    : Y
#XPERCHAN    : 9.99778
#OFFSET      : 1.69135
#BEAMKV      : 20
#SIGNALTYPE  : EDS
#ELEVANGLE   : 35
#AZIMANGLE   : 0
#LIVETIME    : 239.8628
#REALTIME    : 254.6976
#PROBECUR    : 1.02606
#TAUWIND     : 0
#TDEADLYR    : 0
#TACTLYR     : 0.045
#TALWIND     : 0.025
#CHOFFSET    : 0.0
#XLABEL      : Energy (eV)
#YLABEL      : Counts
#XPOSITION   : 1.48094
#YPOSITION   : -0.4581
#ZPOSITION   : 31.0351
#EDSDET      : SD
##SPECIMEN   : SPI MM2 SPI Phlogpite[3][all]
##D2STDCMP   : SPI Phlogpite,(H:0.48),(O:46.01),(Mg:17.47),(Al:6.47),(Si:20.19),(K:9.37)
##DET_HASH   : 12273538-fd48-a23f-0a19-f1e6fa85caef
##CALIB_HASH : 6abaa72c-aa41-8738-0be9-f592914732f3
##WORKING    : 15.0 mm
##DET_NAME   : EDAX All
##DET_MODE   : MediumLE
#SPECTRUM    :
22,
174,
10036,
5383,
50995,
7231,
2787,
3968,
4613,
109167,
6281,
19714,
40653,
19710,
2445,
2386,
2796,
2369,
2553,
2453,
2455,
2360,
2310,
6479,
24548,
2959,
4545,
1810,
1822,
1675,
1699,
1655,
2678,
1634,
1541,
1607,
1381,
1439,
1322,
1303,
1139,
1126,
1385,
1090,
1050,
3118,
7791,
977,
876,
864,
1712,
1228,
753,
853,
732,
707,
639,
651,
645,
633,
590,
595,
562,
541,
545,
472,
510,
416,
449,
435,
435,
397,
420,
355,
337,
350,
337,
329,
326,
290,
272,
225,
242,
274,
236,
231,
210,
226,
195,
190,
211,
191,
166,
158,
161,
154,
133,
124,
130,
108,
121,
99,
105,
87,
95,
98,
90,
78,
82,
77,
76,
63,
56,
59,
40,
38,
46,
60,
32,
33,
26,
28,
29,
36,
23,
20,
23,
15,
18,
21,
14,
13,
6,
8,
13,
9,
4,
7,
4,
4,
4,
1,
0,
2,
0,
0,
1,
0,
0,
0,
0,
0,
0,
0,
0,
0,
0,
0,
0,
0,
0,
0,
0,
0,
0,
0,
2,
0,
0,
0,
0,
0,
1,
0,
0,
0,
0,
0,
0,
1,
0,
0,
0,
0,
0,
0,
0,
0,
0,
0,
0,
0,
0,
0,
0,
0,
0,
0,
0,
1,
0,
0,
0,
0,
0,
0,
0,
0,
0,
0,
0,
0,
0,
0,
0,
0,
0,
0,
0,
0,
0,
0,
0,
0,
0,
0,
0,
0,
0,
0,
0,
0,
0,
0,
0,
0,
0,
0,
0,
0,
0,
0,
0,
0,
0,
0,
0,
0,
0,
0,
0,
0,
0,
0,
0,
0,
0,
0,
0,
0,
0,
0,
0,
0,
0,
0,
0,
0,
0,
0,
0,
0,
0,
0,
0,
0,
0,
0,
0,
0,
0,
0,
0,
0,
0,
0,
0,
0,
0,
0,
0,
0,
0,
0,
#ENDOFDATA   :