File: N132962/Quantification/20 keV/MMM2/SPI MM2 SPI Orthoclaise[4][4].msa
#FORMAT      : EMSA/MAS Spectral Data File
#VERSION     : 1.0
#TITLE       : SPI MM2 SPI Orthoclaise[4][all]
#DATE        : 13-MAR-2025
#TIME        : 10:27
#OWNER       : Unknown
#NPOINTS     : 4096
#NCOLUMNS    : 1
#XUNITS      : eV
#YUNITS      : counts
#DATATYPE    : Y
#XPERCHAN    : 9.99778
#OFFSET      : 1.69135
#BEAMKV      : 20
#SIGNALTYPE  : EDS
#ELEVANGLE   : 35
#AZIMANGLE   : 0
#LIVETIME    : 239.868
#REALTIME    : 255.97
#PROBECUR    : 1.02606
#TAUWIND     : 0
#TDEADLYR    : 0
#TACTLYR     : 0.045
#TALWIND     : 0.025
#CHOFFSET    : 0.0
#XLABEL      : Energy (eV)
#YLABEL      : Counts
#XPOSITION   : 6.16166
#YPOSITION   : 0.1255
#ZPOSITION   : 31.0351
#EDSDET      : SD
##SPECIMEN   : SPI MM2 SPI Orthoclaise[4][all]
##D2STDCMP   : SPI Orthoclaise,(O:45.86),(Na:0.67),(Al:8.85),(Si:30.29),(K:12.85),(Fe:1.4),(Ba:0.04),5.0
##DET_HASH   : 12273538-fd48-a23f-0a19-f1e6fa85caef
##CALIB_HASH : 6abaa72c-aa41-8738-0be9-f592914732f3
##WORKING    : 15.0 mm
##DET_NAME   : EDAX All
##DET_MODE   : MediumLE
#SPECTRUM    :
23,
196,
9360,
4350,
42530,
3574,
2641,
3326,
3756,
4357,
9291,
30165,
74468,
34791,
2466,
2459,
2999,
2513,
2490,
2483,
2321,
2420,
2299,
9957,
41149,
3750,
6243,
1859,
1727,
1687,
1649,
1510,
1626,
1503,
1432,
1509,
1524,
1288,
1360,
1220,
1198,
1049,
1105,
1171,
1054,
1820,
3631,
967,
849,
943,
1230,
920,
770,
778,
713,
740,
720,
710,
653,
706,
560,
597,
536,
538,
520,
504,
516,
487,
480,
408,
431,
411,
435,
386,
378,
370,
352,
338,
330,
306,
327,
270,
245,
277,
267,
250,
211,
230,
198,
177,
207,
187,
186,
155,
154,
159,
146,
126,
123,
114,
109,
104,
120,
84,
91,
84,
81,
81,
87,
81,
74,
58,
49,
51,
53,
47,
48,
28,
31,
39,
18,
31,
37,
35,
24,
23,
21,
31,
25,
16,
16,
12,
19,
12,
11,
7,
3,
3,
5,
6,
2,
1,
3,
0,
0,
0,
0,
0,
1,
1,
1,
0,
0,
0,
0,
0,
0,
0,
0,
0,
0,
0,
0,
0,
0,
0,
0,
0,
0,
0,
0,
0,
0,
0,
0,
0,
0,
0,
0,
0,
0,
0,
0,
0,
0,
0,
0,
0,
0,
0,
0,
0,
0,
0,
0,
0,
0,
0,
0,
0,
0,
0,
0,
0,
0,
0,
0,
0,
0,
0,
0,
0,
0,
0,
0,
0,
0,
0,
0,
0,
0,
0,
0,
0,
0,
0,
0,
0,
0,
0,
0,
0,
0,
0,
0,
0,
0,
0,
0,
0,
0,
0,
0,
0,
0,
0,
0,
0,
0,
0,
0,
0,
0,
0,
0,
0,
0,
0,
0,
0,
0,
0,
0,
0,
0,
0,
0,
0,
0,
0,
0,
0,
0,
0,
0,
0,
0,
0,
0,
0,
0,
0,
0,
0,
0,
0,
0,
0,
0,
0,
0,
0,
0,
0,
#ENDOFDATA   :