File: N132962/Quantification/20 keV/MMM2/SPI MM2 Willemite[1][4].msa
#FORMAT      : EMSA/MAS Spectral Data File
#VERSION     : 1.0
#TITLE       : SPI MM2 Willemite[1][all]
#DATE        : 13-MAR-2025
#TIME        : 14:04
#OWNER       : Unknown
#NPOINTS     : 4096
#NCOLUMNS    : 1
#XUNITS      : eV
#YUNITS      : counts
#DATATYPE    : Y
#XPERCHAN    : 9.99778
#OFFSET      : 1.69135
#BEAMKV      : 20
#SIGNALTYPE  : EDS
#ELEVANGLE   : 35
#AZIMANGLE   : 0
#LIVETIME    : 240.378
#REALTIME    : 257.447
#PROBECUR    : 1.0264
#TAUWIND     : 0
#TDEADLYR    : 0
#TACTLYR     : 0.045
#TALWIND     : 0.025
#CHOFFSET    : 0.0
#XLABEL      : Energy (eV)
#YLABEL      : Counts
#XPOSITION   : 2.68272
#YPOSITION   : 6.24227
#ZPOSITION   : 31.03511
#EDSDET      : SD
##SPECIMEN   : SPI MM2 Willemite[1][all]
##DET_HASH   : 12273538-fd48-a23f-0a19-f1e6fa85caef
##CALIB_HASH : 6abaa72c-aa41-8738-0be9-f592914732f3
##WORKING    : 15.0 mm
##DET_NAME   : EDAX All
##DET_MODE   : MediumLE
#SPECTRUM    :
27,
260,
13669,
5871,
41101,
4574,
11195,
133976,
5855,
4543,
3217,
4069,
23883,
12851,
3426,
3431,
3703,
3569,
3598,
3681,
3747,
3488,
3404,
3393,
3247,
3208,
3211,
3095,
3018,
2917,
2844,
2730,
2644,
2504,
2463,
2405,
2333,
2270,
2208,
2232,
2101,
2160,
9695,
2496,
1882,
1777,
2602,
1971,
1611,
1674,
1625,
1471,
1374,
1441,
1368,
1313,
1205,
1225,
1197,
1274,
1413,
19658,
32396,
1656,
1088,
1014,
947,
1167,
5408,
3227,
743,
723,
709,
666,
683,
647,
688,
552,
559,
524,
561,
542,
487,
468,
460,
451,
400,
419,
411,
381,
351,
318,
363,
298,
313,
285,
259,
301,
274,
251,
227,
245,
196,
197,
209,
203,
175,
166,
149,
157,
137,
131,
124,
118,
99,
96,
111,
93,
90,
83,
85,
73,
62,
63,
63,
54,
50,
37,
42,
21,
37,
25,
25,
18,
31,
13,
11,
17,
5,
11,
7,
4,
2,
1,
1,
1,
0,
0,
0,
0,
0,
1,
1,
1,
0,
0,
1,
2,
0,
0,
0,
0,
0,
0,
0,
0,
0,
0,
0,
1,
0,
0,
0,
0,
0,
0,
0,
0,
0,
1,
0,
0,
0,
0,
0,
0,
0,
0,
0,
1,
0,
0,
0,
0,
0,
0,
0,
0,
0,
0,
0,
0,
0,
0,
0,
0,
0,
0,
0,
0,
0,
0,
0,
0,
0,
0,
0,
0,
0,
0,
0,
0,
0,
0,
0,
0,
0,
0,
0,
0,
0,
0,
0,
0,
0,
0,
0,
0,
0,
0,
0,
0,
0,
0,
0,
0,
0,
0,
0,
0,
0,
0,
0,
0,
0,
0,
0,
0,
0,
0,
0,
0,
0,
0,
0,
0,
0,
0,
0,
0,
0,
0,
0,
0,
0,
0,
0,
0,
0,
0,
0,
0,
0,
0,
0,
0,
0,
0,
0,
0,
0,
0,
0,
0,
#ENDOFDATA   :