File: N132962/Quantification/20 keV/MMM2/SPI MM2 Sphene[0][4].msa
#FORMAT      : EMSA/MAS Spectral Data File
#VERSION     : 1.0
#TITLE       : SPI MM2 Sphene[0][all]
#DATE        : 13-MAR-2025
#TIME        : 12:58
#OWNER       : Unknown
#NPOINTS     : 4096
#NCOLUMNS    : 1
#XUNITS      : eV
#YUNITS      : counts
#DATATYPE    : Y
#XPERCHAN    : 9.99778
#OFFSET      : 1.69135
#BEAMKV      : 20
#SIGNALTYPE  : EDS
#ELEVANGLE   : 35
#AZIMANGLE   : 0
#LIVETIME    : 239.86
#REALTIME    : 254.821
#PROBECUR    : 1.02627
#TAUWIND     : 0
#TDEADLYR    : 0
#TACTLYR     : 0.045
#TALWIND     : 0.025
#CHOFFSET    : 0.0
#XLABEL      : Energy (eV)
#YLABEL      : Counts
#XPOSITION   : 6.10773
#YPOSITION   : 3.74563
#ZPOSITION   : 31.03511
#EDSDET      : SD
##SPECIMEN   : SPI MM2 Sphene[0][all]
##DET_HASH   : 12273538-fd48-a23f-0a19-f1e6fa85caef
##CALIB_HASH : 6abaa72c-aa41-8738-0be9-f592914732f3
##WORKING    : 15.0 mm
##DET_NAME   : EDAX All
##DET_MODE   : MediumLE
#SPECTRUM    :
25,
200,
13434,
7685,
21759,
2502,
2464,
2829,
3405,
4225,
4781,
6827,
38324,
19473,
4506,
3644,
3783,
3389,
3265,
3285,
3508,
3046,
3052,
2917,
2764,
3327,
55722,
19478,
4748,
10036,
1991,
2606,
61801,
8345,
2037,
9555,
2749,
1456,
1484,
1593,
1351,
1306,
1377,
1265,
1201,
1450,
1844,
1194,
1080,
1039,
1115,
997,
919,
983,
923,
881,
800,
809,
791,
810,
715,
707,
663,
699,
656,
652,
595,
578,
573,
543,
528,
518,
474,
468,
443,
437,
416,
391,
389,
380,
376,
376,
339,
322,
337,
315,
273,
275,
270,
268,
261,
240,
236,
236,
204,
179,
181,
152,
166,
166,
153,
148,
133,
129,
125,
101,
120,
97,
119,
78,
99,
72,
72,
82,
71,
57,
64,
53,
67,
47,
57,
33,
42,
44,
27,
32,
37,
21,
23,
27,
18,
12,
17,
10,
10,
11,
6,
10,
4,
2,
6,
2,
0,
0,
0,
1,
0,
0,
0,
0,
0,
0,
1,
0,
0,
1,
0,
0,
0,
0,
0,
0,
0,
0,
0,
0,
0,
0,
0,
0,
0,
0,
0,
0,
0,
0,
0,
0,
0,
0,
0,
0,
0,
0,
0,
0,
0,
0,
0,
0,
0,
0,
0,
0,
0,
0,
0,
0,
0,
0,
0,
0,
0,
0,
0,
0,
0,
0,
0,
0,
0,
0,
0,
0,
0,
0,
0,
0,
0,
0,
0,
0,
0,
0,
0,
0,
0,
0,
0,
0,
0,
0,
0,
0,
0,
0,
0,
0,
0,
0,
0,
0,
0,
0,
0,
0,
0,
0,
0,
0,
0,
0,
0,
0,
0,
0,
0,
0,
0,
0,
0,
0,
0,
0,
0,
0,
0,
0,
0,
0,
0,
0,
0,
0,
0,
0,
0,
0,
0,
0,
0,
0,
0,
0,
0,
0,
0,
0,
0,
0,
0,
0,
0,
0,
#ENDOFDATA   :