File: N132962/Quantification/20 keV/MMM2/SPI MM2 SPI Molybdenite[7][4].msa
#FORMAT      : EMSA/MAS Spectral Data File
#VERSION     : 1.0
#TITLE       : SPI MM2 SPI Molybdenite[7][all]
#DATE        : 13-MAR-2025
#TIME        : 10:21
#OWNER       : Unknown
#NPOINTS     : 4096
#NCOLUMNS    : 1
#XUNITS      : eV
#YUNITS      : counts
#DATATYPE    : Y
#XPERCHAN    : 9.99778
#OFFSET      : 1.69135
#BEAMKV      : 20
#SIGNALTYPE  : EDS
#ELEVANGLE   : 35
#AZIMANGLE   : 0
#LIVETIME    : 239.725
#REALTIME    : 266.275
#PROBECUR    : 1.02606
#TAUWIND     : 0
#TDEADLYR    : 0
#TACTLYR     : 0.045
#TALWIND     : 0.025
#CHOFFSET    : 0.0
#XLABEL      : Energy (eV)
#YLABEL      : Counts
#XPOSITION   : 5.68982
#YPOSITION   : -3.24716
#ZPOSITION   : 31.0351
#EDSDET      : SD
##SPECIMEN   : SPI MM2 SPI Molybdenite[7][all]
##D2STDCMP   : SPI Molybdenite,(S:39.84),(Mo:59.29),5.0
##DET_HASH   : 12273538-fd48-a23f-0a19-f1e6fa85caef
##CALIB_HASH : 6abaa72c-aa41-8738-0be9-f592914732f3
##WORKING    : 15.0 mm
##DET_NAME   : EDAX All
##DET_MODE   : MediumLE
#SPECTRUM    :
17,
2552,
14432,
2557,
14698,
5834,
5840,
6651,
7523,
8310,
8746,
8985,
9607,
9633,
12015,
12646,
184080,
172385,
24265,
4377,
4045,
3168,
3261,
3188,
3234,
3383,
3345,
3382,
3353,
3376,
3301,
3286,
3459,
4857,
3612,
3104,
2845,
2917,
2867,
2844,
2755,
2550,
2703,
2429,
2588,
2476,
2641,
2202,
2262,
2126,
2149,
2110,
2021,
2061,
2025,
1807,
1794,
1738,
1682,
1699,
1613,
1525,
1530,
1547,
1387,
1374,
1341,
1343,
1303,
1263,
1224,
1252,
1132,
1080,
1031,
1048,
971,
956,
930,
921,
849,
829,
789,
817,
801,
723,
684,
625,
646,
618,
601,
581,
504,
542,
490,
458,
437,
479,
394,
394,
351,
390,
377,
365,
312,
298,
319,
291,
245,
255,
210,
213,
192,
202,
191,
202,
147,
143,
138,
132,
106,
132,
124,
111,
94,
83,
88,
73,
55,
63,
52,
54,
38,
35,
33,
24,
22,
20,
20,
16,
15,
5,
4,
0,
1,
1,
1,
1,
0,
2,
1,
0,
0,
2,
3,
1,
0,
0,
1,
0,
1,
0,
0,
0,
0,
0,
0,
0,
0,
0,
0,
0,
0,
0,
0,
0,
0,
0,
0,
1,
1,
0,
0,
0,
0,
1,
0,
0,
0,
0,
0,
0,
0,
0,
0,
0,
0,
0,
0,
0,
0,
0,
0,
0,
0,
0,
0,
0,
0,
0,
1,
0,
0,
0,
0,
0,
0,
0,
0,
0,
0,
0,
0,
0,
0,
0,
0,
0,
0,
0,
0,
0,
0,
0,
0,
0,
0,
0,
0,
0,
0,
0,
0,
0,
0,
0,
0,
0,
0,
0,
0,
0,
0,
0,
0,
0,
0,
0,
0,
0,
0,
0,
0,
0,
0,
0,
0,
0,
0,
0,
0,
0,
0,
0,
0,
0,
0,
0,
0,
0,
0,
0,
0,
0,
0,
0,
0,
0,
0,
0,
0,
0,
0,
0,
#ENDOFDATA   :