File: N132962/Quantification/20 keV/MMM2/SPI MM2 SPI Magnetite[4][4].msa
#FORMAT      : EMSA/MAS Spectral Data File
#VERSION     : 1.0
#TITLE       : SPI MM2 SPI Magnetite[4][all]
#DATE        : 13-MAR-2025
#TIME        : 09:22
#OWNER       : Unknown
#NPOINTS     : 4096
#NCOLUMNS    : 1
#XUNITS      : eV
#YUNITS      : counts
#DATATYPE    : Y
#XPERCHAN    : 9.99778
#OFFSET      : 1.69135
#BEAMKV      : 20
#SIGNALTYPE  : EDS
#ELEVANGLE   : 35
#AZIMANGLE   : 0
#LIVETIME    : 239.903
#REALTIME    : 256.867
#PROBECUR    : 1.02582
#TAUWIND     : 0
#TDEADLYR    : 0
#TACTLYR     : 0.045
#TALWIND     : 0.025
#CHOFFSET    : 0.0
#XLABEL      : Energy (eV)
#YLABEL      : Counts
#XPOSITION   : 3.88913
#YPOSITION   : -4.19607
#ZPOSITION   : 31.03509
#EDSDET      : SD
##SPECIMEN   : SPI MM2 SPI Magnetite[4][all]
##D2STDCMP   : SPI Magnetite,(O:27.53),(Si:0.01),(Mn:0.18),(Fe:71.88)
##DET_HASH   : 12273538-fd48-a23f-0a19-f1e6fa85caef
##CALIB_HASH : 6abaa72c-aa41-8738-0be9-f592914732f3
##WORKING    : 15.0 mm
##DET_NAME   : EDAX All
##DET_MODE   : MediumLE
#SPECTRUM    :
36,
278,
12165,
9444,
66027,
51888,
2385,
2385,
2915,
3435,
3949,
4254,
4578,
4923,
4324,
4472,
4422,
4424,
4300,
4227,
4077,
3943,
4036,
3788,
3766,
3493,
3489,
3276,
3292,
3158,
2938,
2903,
3318,
3303,
2722,
2680,
2484,
2513,
2508,
2379,
2262,
2091,
2675,
2142,
2305,
35695,
109617,
2948,
1858,
2333,
14231,
7840,
1229,
1266,
1265,
1149,
1094,
1091,
1099,
1049,
1046,
976,
1025,
952,
906,
889,
915,
875,
838,
801,
836,
754,
739,
704,
644,
693,
644,
613,
610,
545,
577,
550,
533,
492,
453,
467,
453,
450,
408,
378,
412,
451,
379,
359,
332,
302,
305,
297,
304,
272,
252,
247,
236,
192,
201,
189,
190,
149,
157,
161,
154,
145,
156,
110,
123,
101,
109,
76,
87,
81,
80,
86,
66,
53,
57,
53,
48,
33,
40,
36,
27,
32,
24,
20,
13,
17,
17,
10,
8,
13,
4,
6,
1,
5,
0,
1,
2,
0,
0,
1,
0,
1,
2,
0,
1,
0,
0,
1,
0,
0,
1,
0,
1,
0,
0,
0,
0,
0,
0,
1,
0,
0,
0,
0,
0,
0,
0,
1,
1,
0,
1,
0,
0,
0,
0,
0,
1,
0,
0,
0,
0,
0,
0,
0,
0,
0,
0,
0,
0,
0,
0,
0,
0,
0,
0,
0,
0,
0,
0,
0,
0,
0,
0,
0,
0,
0,
0,
0,
0,
0,
0,
0,
0,
0,
0,
0,
0,
0,
0,
0,
0,
0,
0,
0,
0,
0,
0,
0,
0,
0,
0,
0,
0,
0,
0,
0,
0,
0,
0,
0,
0,
0,
0,
0,
0,
0,
0,
0,
0,
0,
0,
0,
0,
0,
0,
0,
0,
0,
0,
0,
0,
0,
0,
0,
0,
0,
0,
0,
0,
0,
0,
0,
0,
0,
0,
0,
0,
0,
0,
0,
0,
0,
0,
0,
#ENDOFDATA   :