File: N132962/Quantification/20 keV/MMM2/SPI MM2 SPI Monazite[3][4].msa
#FORMAT      : EMSA/MAS Spectral Data File
#VERSION     : 1.0
#TITLE       : SPI MM2 SPI Monazite[3][all]
#DATE        : 13-MAR-2025
#TIME        : 10:07
#OWNER       : Unknown
#NPOINTS     : 4096
#NCOLUMNS    : 1
#XUNITS      : eV
#YUNITS      : counts
#DATATYPE    : Y
#XPERCHAN    : 9.99778
#OFFSET      : 1.69135
#BEAMKV      : 20
#SIGNALTYPE  : EDS
#ELEVANGLE   : 35
#AZIMANGLE   : 0
#LIVETIME    : 239.948
#REALTIME    : 258.54
#PROBECUR    : 1.02627
#TAUWIND     : 0
#TDEADLYR    : 0
#TACTLYR     : 0.045
#TALWIND     : 0.025
#CHOFFSET    : 0.0
#XLABEL      : Energy (eV)
#YLABEL      : Counts
#XPOSITION   : 2.48359
#YPOSITION   : -2.72198
#ZPOSITION   : 31.03509
#EDSDET      : SD
##SPECIMEN   : SPI MM2 SPI Monazite[3][all]
##D2STDCMP   : SPI Monazite,(O:26.45),(Si:0.83),(P:11.85),(Ca:0.65),(Y:1.59),(La:7.84),(Ce:19.96),(Pr:2.47),(Nd:9.68),(Sm:3.7),(Eu:0.38),(Gd:2.89),(Tb:0.35),(Dy:1.21),(Pb:0.25),(Th:9.7),(U:0.16),5.0
##DET_HASH   : 12273538-fd48-a23f-0a19-f1e6fa85caef
##CALIB_HASH : 6abaa72c-aa41-8738-0be9-f592914732f3
##WORKING    : 15.0 mm
##DET_NAME   : EDAX All
##DET_MODE   : MediumLE
#SPECTRUM    :
20,
462,
17321,
7795,
40857,
9497,
10916,
9313,
7567,
6531,
5710,
5575,
7454,
7167,
36524,
12771,
5268,
5826,
5267,
5307,
5217,
11701,
11222,
7856,
6058,
4865,
5889,
4761,
4512,
4788,
4429,
4642,
4252,
13142,
13400,
17299,
12067,
15785,
15329,
6180,
10983,
9402,
4399,
7076,
5355,
4320,
3642,
4093,
3397,
2806,
2595,
2774,
2506,
2420,
2172,
2196,
2085,
1907,
1841,
1907,
1795,
1705,
1737,
1678,
1543,
1567,
1492,
1460,
1463,
1434,
1445,
1409,
1291,
1259,
1198,
1249,
1190,
1124,
1090,
1033,
1058,
960,
910,
917,
931,
836,
794,
752,
752,
742,
707,
753,
809,
823,
631,
579,
571,
496,
534,
448,
485,
423,
458,
397,
380,
374,
386,
372,
325,
319,
264,
303,
271,
266,
218,
259,
185,
170,
168,
174,
168,
135,
136,
118,
122,
101,
112,
80,
87,
72,
63,
68,
65,
61,
45,
32,
30,
29,
24,
13,
14,
4,
4,
4,
0,
0,
1,
1,
2,
1,
1,
0,
2,
1,
0,
1,
0,
2,
2,
2,
0,
0,
1,
2,
0,
2,
0,
1,
1,
0,
0,
0,
0,
0,
1,
0,
1,
0,
0,
0,
1,
0,
1,
0,
0,
0,
0,
0,
0,
1,
0,
0,
0,
0,
0,
0,
0,
2,
0,
0,
0,
0,
0,
0,
0,
0,
0,
0,
0,
0,
0,
0,
0,
0,
0,
0,
1,
0,
0,
0,
0,
0,
0,
0,
0,
0,
0,
0,
0,
0,
0,
0,
0,
0,
0,
0,
0,
0,
0,
0,
0,
0,
0,
0,
0,
0,
0,
0,
0,
0,
0,
0,
0,
0,
0,
0,
0,
0,
0,
0,
0,
0,
0,
0,
0,
0,
0,
0,
0,
0,
0,
0,
0,
0,
0,
0,
0,
0,
0,
0,
0,
0,
0,
0,
0,
0,
0,
0,
0,
0,
0,
0,
0,
0,
#ENDOFDATA   :