File: N132962/Quantification/20 keV/MMM2/SPI MM2 Spessartine[4][4].msa
#FORMAT      : EMSA/MAS Spectral Data File
#VERSION     : 1.0
#TITLE       : SPI MM2 Spessartine[4][all]
#DATE        : 13-MAR-2025
#TIME        : 12:07
#OWNER       : Unknown
#NPOINTS     : 4096
#NCOLUMNS    : 1
#XUNITS      : eV
#YUNITS      : counts
#DATATYPE    : Y
#XPERCHAN    : 9.99778
#OFFSET      : 1.69135
#BEAMKV      : 20
#SIGNALTYPE  : EDS
#ELEVANGLE   : 35
#AZIMANGLE   : 0
#LIVETIME    : 239.861
#REALTIME    : 256.239
#PROBECUR    : 1.02616
#TAUWIND     : 0
#TDEADLYR    : 0
#TACTLYR     : 0.045
#TALWIND     : 0.025
#CHOFFSET    : 0.0
#XLABEL      : Energy (eV)
#YLABEL      : Counts
#XPOSITION   : -5.77917
#YPOSITION   : 1.56153
#ZPOSITION   : 31.03511
#EDSDET      : SD
##SPECIMEN   : SPI MM2 Spessartine[4][all]
##DET_HASH   : 12273538-fd48-a23f-0a19-f1e6fa85caef
##CALIB_HASH : 6abaa72c-aa41-8738-0be9-f592914732f3
##WORKING    : 15.0 mm
##DET_NAME   : EDAX All
##DET_MODE   : MediumLE
#SPECTRUM    :
29,
237,
9807,
7639,
71688,
5501,
2313,
2820,
3409,
3887,
8925,
30433,
37317,
18769,
3394,
3062,
3449,
3127,
3085,
3002,
2950,
2957,
2720,
2865,
2675,
2640,
3175,
2714,
2397,
2439,
2430,
2101,
2168,
1980,
1836,
1842,
1813,
1798,
1743,
1645,
1695,
3613,
70566,
7111,
1422,
2002,
9688,
3680,
1080,
1053,
1160,
1106,
954,
1050,
985,
989,
895,
883,
819,
807,
762,
769,
669,
697,
647,
644,
620,
602,
618,
561,
571,
549,
535,
504,
491,
469,
430,
442,
418,
416,
406,
350,
368,
361,
348,
335,
330,
313,
306,
266,
256,
260,
228,
226,
222,
191,
195,
187,
179,
169,
150,
150,
141,
135,
137,
134,
118,
114,
105,
95,
91,
94,
78,
87,
78,
52,
63,
57,
52,
60,
43,
49,
37,
36,
30,
30,
29,
26,
34,
21,
25,
18,
15,
12,
5,
13,
8,
6,
4,
3,
1,
3,
3,
0,
0,
1,
0,
0,
0,
0,
1,
0,
0,
0,
0,
0,
0,
0,
0,
0,
0,
0,
0,
0,
0,
0,
0,
0,
0,
0,
0,
0,
0,
0,
0,
0,
0,
0,
0,
0,
0,
0,
0,
0,
0,
0,
0,
0,
0,
0,
0,
0,
0,
0,
0,
0,
0,
0,
0,
0,
0,
0,
0,
0,
0,
0,
0,
0,
0,
0,
0,
0,
0,
0,
0,
0,
0,
0,
0,
0,
0,
0,
0,
0,
0,
0,
0,
0,
0,
0,
0,
0,
0,
0,
0,
0,
0,
0,
0,
0,
0,
0,
0,
0,
0,
0,
0,
0,
0,
0,
0,
0,
0,
0,
0,
0,
0,
0,
0,
0,
0,
0,
0,
0,
0,
0,
0,
0,
0,
0,
0,
0,
0,
0,
0,
0,
0,
0,
0,
0,
0,
0,
0,
0,
0,
0,
0,
0,
0,
0,
0,
0,
0,
0,
#ENDOFDATA   :