File: N132962/Quantification/20 keV/MMM2/SPI MM2 Sphodumene[0][4].msa
#FORMAT      : EMSA/MAS Spectral Data File
#VERSION     : 1.0
#TITLE       : SPI MM2 Sphodumene[0][all]
#DATE        : 13-MAR-2025
#TIME        : 13:07
#OWNER       : Unknown
#NPOINTS     : 4096
#NCOLUMNS    : 1
#XUNITS      : eV
#YUNITS      : counts
#DATATYPE    : Y
#XPERCHAN    : 9.99778
#OFFSET      : 1.69135
#BEAMKV      : 20
#SIGNALTYPE  : EDS
#ELEVANGLE   : 35
#AZIMANGLE   : 0
#LIVETIME    : 239.846
#REALTIME    : 255.79
#PROBECUR    : 1.0263
#TAUWIND     : 0
#TDEADLYR    : 0
#TACTLYR     : 0.045
#TALWIND     : 0.025
#CHOFFSET    : 0.0
#XLABEL      : Energy (eV)
#YLABEL      : Counts
#XPOSITION   : 3.45115
#YPOSITION   : 3.44289
#ZPOSITION   : 31.03511
#EDSDET      : SD
##SPECIMEN   : SPI MM2 Sphodumene[0][all]
##DET_HASH   : 12273538-fd48-a23f-0a19-f1e6fa85caef
##CALIB_HASH : 6abaa72c-aa41-8738-0be9-f592914732f3
##WORKING    : 15.0 mm
##DET_NAME   : EDAX All
##DET_MODE   : MediumLE
#SPECTRUM    :
36,
181,
8276,
6483,
69788,
1888,
2386,
3272,
3630,
4232,
12230,
48407,
69351,
32436,
2242,
2021,
2723,
2030,
2001,
2008,
2000,
2092,
1967,
2197,
1799,
2135,
1700,
1636,
1647,
1547,
1478,
1382,
1374,
1305,
1273,
1182,
1195,
1137,
1111,
1138,
1018,
941,
985,
913,
883,
871,
864,
806,
785,
715,
720,
697,
648,
622,
643,
649,
584,
580,
545,
567,
495,
513,
463,
472,
477,
399,
426,
384,
363,
363,
330,
348,
328,
303,
314,
310,
313,
249,
245,
245,
268,
221,
212,
216,
212,
189,
195,
207,
172,
170,
136,
146,
156,
131,
128,
113,
132,
118,
104,
100,
92,
98,
96,
74,
75,
67,
62,
77,
65,
53,
64,
78,
47,
43,
39,
54,
32,
41,
32,
23,
22,
26,
29,
26,
18,
20,
13,
18,
16,
21,
16,
11,
9,
11,
12,
6,
7,
9,
3,
2,
0,
0,
0,
0,
0,
0,
0,
0,
0,
0,
0,
0,
0,
0,
0,
0,
0,
0,
0,
0,
0,
0,
0,
0,
0,
0,
0,
0,
0,
0,
0,
0,
0,
0,
0,
1,
0,
0,
0,
0,
0,
0,
0,
0,
0,
0,
0,
0,
0,
0,
0,
0,
0,
0,
0,
0,
0,
0,
0,
1,
0,
0,
0,
0,
0,
0,
0,
0,
0,
0,
0,
0,
0,
0,
0,
0,
0,
0,
0,
0,
0,
0,
0,
0,
0,
0,
0,
0,
0,
0,
0,
0,
0,
0,
0,
0,
0,
0,
0,
0,
0,
0,
0,
0,
0,
0,
0,
0,
0,
0,
0,
0,
0,
0,
0,
0,
0,
0,
0,
0,
0,
0,
0,
0,
0,
0,
0,
0,
0,
0,
0,
0,
0,
0,
0,
0,
0,
0,
0,
0,
0,
0,
0,
0,
0,
0,
0,
0,
0,
0,
0,
0,
0,
0,
#ENDOFDATA   :