File: N132962/Quantification/20 keV/MMM2/SPI MM2 Sphodumene[3][4].msa
#FORMAT      : EMSA/MAS Spectral Data File
#VERSION     : 1.0
#TITLE       : SPI MM2 Sphodumene[3][all]
#DATE        : 13-MAR-2025
#TIME        : 13:11
#OWNER       : Unknown
#NPOINTS     : 4096
#NCOLUMNS    : 1
#XUNITS      : eV
#YUNITS      : counts
#DATATYPE    : Y
#XPERCHAN    : 9.99778
#OFFSET      : 1.69135
#BEAMKV      : 20
#SIGNALTYPE  : EDS
#ELEVANGLE   : 35
#AZIMANGLE   : 0
#LIVETIME    : 239.842
#REALTIME    : 255.7923
#PROBECUR    : 1.0263
#TAUWIND     : 0
#TDEADLYR    : 0
#TACTLYR     : 0.045
#TALWIND     : 0.025
#CHOFFSET    : 0.0
#XLABEL      : Energy (eV)
#YLABEL      : Counts
#XPOSITION   : 3.43687
#YPOSITION   : 3.45499
#ZPOSITION   : 31.03511
#EDSDET      : SD
##SPECIMEN   : SPI MM2 Sphodumene[3][all]
##DET_HASH   : 12273538-fd48-a23f-0a19-f1e6fa85caef
##CALIB_HASH : 6abaa72c-aa41-8738-0be9-f592914732f3
##WORKING    : 15.0 mm
##DET_NAME   : EDAX All
##DET_MODE   : MediumLE
#SPECTRUM    :
32,
173,
8081,
6552,
70386,
1869,
2417,
3167,
3591,
4304,
12457,
48610,
68917,
32662,
2102,
2009,
2718,
2054,
1969,
2080,
1951,
2106,
1973,
2300,
1858,
2220,
1772,
1703,
1652,
1589,
1545,
1416,
1334,
1285,
1262,
1237,
1168,
1184,
1125,
1072,
1089,
1058,
986,
938,
875,
973,
893,
821,
773,
748,
739,
723,
706,
688,
620,
601,
578,
576,
529,
532,
508,
487,
473,
489,
472,
426,
439,
420,
420,
420,
338,
320,
347,
320,
334,
295,
317,
275,
274,
250,
226,
228,
213,
230,
216,
211,
186,
183,
151,
173,
147,
162,
146,
153,
144,
110,
126,
110,
102,
103,
112,
82,
95,
84,
66,
71,
74,
62,
55,
65,
48,
59,
43,
40,
31,
32,
45,
34,
39,
32,
30,
24,
20,
23,
27,
18,
16,
19,
16,
14,
7,
8,
12,
8,
3,
4,
5,
2,
5,
3,
3,
2,
0,
0,
0,
0,
0,
0,
0,
0,
0,
0,
0,
0,
0,
0,
0,
0,
0,
1,
0,
0,
0,
0,
0,
0,
0,
0,
0,
0,
0,
0,
0,
0,
0,
0,
0,
0,
0,
0,
0,
0,
0,
0,
0,
0,
0,
0,
0,
0,
0,
0,
0,
0,
0,
0,
0,
0,
0,
0,
0,
0,
0,
0,
0,
0,
0,
0,
0,
0,
0,
0,
0,
0,
0,
0,
0,
0,
0,
0,
0,
0,
0,
0,
0,
0,
0,
0,
0,
0,
0,
0,
0,
0,
0,
0,
0,
0,
0,
0,
0,
0,
0,
0,
0,
0,
0,
0,
0,
0,
0,
0,
0,
0,
0,
0,
0,
0,
0,
0,
0,
0,
0,
0,
0,
0,
0,
0,
0,
0,
0,
0,
0,
0,
0,
0,
0,
0,
0,
0,
0,
0,
0,
0,
0,
0,
0,
0,
0,
0,
0,
0,
0,
0,
#ENDOFDATA   :