File: N132962/Quantification/20 keV/MMM2/SPI MM2 Pyrope[2][4].msa
#FORMAT      : EMSA/MAS Spectral Data File
#VERSION     : 1.0
#TITLE       : SPI MM2 Pyrope[2][all]
#DATE        : 13-MAR-2025
#TIME        : 12:42
#OWNER       : Unknown
#NPOINTS     : 4096
#NCOLUMNS    : 1
#XUNITS      : eV
#YUNITS      : counts
#DATATYPE    : Y
#XPERCHAN    : 9.99778
#OFFSET      : 1.69135
#BEAMKV      : 20
#SIGNALTYPE  : EDS
#ELEVANGLE   : 35
#AZIMANGLE   : 0
#LIVETIME    : 239.5837
#REALTIME    : 254.76
#PROBECUR    : 1.02627
#TAUWIND     : 0
#TDEADLYR    : 0
#TACTLYR     : 0.045
#TALWIND     : 0.025
#CHOFFSET    : 0.0
#XLABEL      : Energy (eV)
#YLABEL      : Counts
#XPOSITION   : 4.57538
#YPOSITION   : 1.55069
#ZPOSITION   : 31.03511
#EDSDET      : SD
##SPECIMEN   : SPI MM2 Pyrope[2][all]
##D2STDCMP   : Pyrope,(O:47.6258),(Mg:18.0873),(Al:13.3861),(Si:20.9007),5.0
##DET_HASH   : 12273538-fd48-a23f-0a19-f1e6fa85caef
##CALIB_HASH : 6abaa72c-aa41-8738-0be9-f592914732f3
##WORKING    : 15.0 mm
##DET_NAME   : EDAX All
##DET_MODE   : MediumLE
#SPECTRUM    :
29,
184,
9507,
5849,
58252,
7218,
2490,
3294,
4274,
94248,
8288,
30409,
40820,
20011,
2633,
2343,
2690,
2551,
2490,
2476,
2368,
2417,
2308,
2312,
2066,
2251,
9323,
4239,
2173,
2917,
1701,
1553,
2495,
1667,
1460,
1628,
1402,
1400,
1836,
2549,
1141,
1173,
1762,
1271,
1110,
3820,
10295,
1022,
957,
959,
1926,
1351,
770,
778,
710,
740,
711,
682,
674,
641,
631,
579,
578,
563,
515,
502,
470,
479,
472,
445,
440,
415,
415,
377,
347,
352,
369,
344,
317,
323,
286,
275,
285,
249,
251,
247,
224,
227,
258,
212,
197,
165,
179,
168,
154,
160,
140,
134,
127,
136,
121,
109,
111,
100,
119,
90,
93,
87,
86,
73,
79,
56,
63,
61,
52,
47,
48,
39,
40,
37,
31,
32,
34,
31,
21,
23,
24,
19,
9,
21,
23,
17,
13,
9,
4,
10,
7,
6,
5,
3,
1,
1,
0,
0,
1,
0,
0,
0,
0,
0,
0,
0,
0,
0,
0,
0,
0,
0,
0,
0,
0,
0,
0,
0,
0,
0,
0,
0,
0,
0,
0,
0,
0,
0,
0,
0,
0,
0,
0,
0,
0,
0,
0,
0,
1,
0,
0,
0,
0,
0,
0,
0,
0,
0,
0,
0,
0,
0,
0,
0,
0,
0,
0,
0,
0,
0,
0,
0,
0,
0,
0,
0,
0,
0,
0,
0,
0,
0,
0,
0,
0,
0,
0,
0,
0,
0,
0,
0,
0,
0,
0,
0,
0,
0,
0,
0,
0,
0,
0,
0,
0,
0,
0,
0,
0,
0,
0,
0,
0,
0,
0,
0,
0,
0,
0,
0,
0,
0,
0,
0,
0,
0,
0,
0,
0,
0,
0,
0,
0,
0,
0,
0,
0,
0,
0,
0,
0,
0,
0,
0,
0,
0,
0,
0,
0,
0,
0,
0,
0,
0,
0,
0,
0,
0,
#ENDOFDATA   :