File: N132962/Quantification/20 keV/MMM2/SPI MM2 SPI Mangotantalite[0][4].msa
#FORMAT      : EMSA/MAS Spectral Data File
#VERSION     : 1.0
#TITLE       : SPI MM2 SPI Mangotantalite[0][all]
#DATE        : 13-MAR-2025
#TIME        : 09:36
#OWNER       : Unknown
#NPOINTS     : 4096
#NCOLUMNS    : 1
#XUNITS      : eV
#YUNITS      : counts
#DATATYPE    : Y
#XPERCHAN    : 9.99778
#OFFSET      : 1.69135
#BEAMKV      : 20
#SIGNALTYPE  : EDS
#ELEVANGLE   : 35
#AZIMANGLE   : 0
#LIVETIME    : 239.813
#REALTIME    : 261.937
#PROBECUR    : 1.02582
#TAUWIND     : 0
#TDEADLYR    : 0
#TACTLYR     : 0.045
#TALWIND     : 0.025
#CHOFFSET    : 0.0
#XLABEL      : Energy (eV)
#YLABEL      : Counts
#XPOSITION   : -1.62748
#YPOSITION   : -4.64465
#ZPOSITION   : 31.03509
#EDSDET      : SD
##SPECIMEN   : SPI MM2 SPI Mangotantalite[0][all]
##DET_HASH   : 12273538-fd48-a23f-0a19-f1e6fa85caef
##CALIB_HASH : 6abaa72c-aa41-8738-0be9-f592914732f3
##WORKING    : 15.0 mm
##DET_NAME   : EDAX All
##DET_MODE   : MediumLE
#SPECTRUM    :
23,
692,
14787,
6145,
25574,
7719,
5852,
6521,
7316,
10277,
11242,
9904,
137927,
29658,
9920,
12315,
19362,
6315,
4843,
5092,
4639,
4799,
4810,
4849,
4964,
4966,
4842,
4683,
4815,
4779,
4797,
4471,
5433,
4330,
4249,
4322,
4034,
4116,
4032,
3844,
3636,
4290,
27757,
5442,
3477,
4564,
9312,
4207,
2982,
3007,
3322,
4064,
3062,
2859,
2677,
2606,
2509,
4347,
26211,
6852,
2624,
2273,
2241,
2098,
2040,
2263,
6143,
9779,
4104,
6020,
2284,
1737,
1563,
1559,
1460,
1480,
1431,
1820,
2665,
1506,
1637,
1409,
1183,
1181,
1059,
1001,
947,
937,
937,
960,
895,
858,
812,
804,
736,
723,
669,
663,
645,
627,
572,
540,
513,
501,
457,
501,
437,
425,
404,
405,
359,
342,
352,
306,
263,
285,
275,
245,
253,
237,
184,
193,
188,
166,
162,
156,
129,
136,
98,
99,
105,
80,
70,
77,
59,
61,
54,
46,
39,
26,
23,
16,
11,
4,
6,
1,
1,
3,
3,
5,
1,
2,
2,
2,
3,
2,
1,
1,
3,
2,
4,
2,
0,
1,
0,
0,
0,
0,
0,
0,
0,
0,
0,
0,
0,
0,
2,
1,
1,
0,
0,
0,
0,
0,
0,
0,
1,
0,
0,
0,
1,
0,
0,
0,
1,
0,
0,
1,
0,
0,
0,
1,
0,
1,
1,
0,
0,
0,
0,
0,
0,
0,
0,
0,
0,
0,
0,
0,
0,
0,
0,
0,
0,
0,
0,
0,
0,
0,
0,
0,
0,
0,
0,
0,
0,
0,
0,
0,
0,
0,
0,
0,
0,
0,
0,
0,
0,
0,
0,
0,
0,
0,
0,
0,
0,
0,
0,
0,
0,
0,
0,
0,
0,
0,
0,
0,
0,
0,
0,
0,
0,
0,
0,
0,
0,
0,
0,
0,
0,
0,
0,
0,
0,
0,
0,
0,
0,
0,
0,
0,
0,
0,
0,
0,
#ENDOFDATA   :