File: N132962/Quantification/20 keV/MMM2/SPI MM2 Willemite[3][4].msa
#FORMAT      : EMSA/MAS Spectral Data File
#VERSION     : 1.0
#TITLE       : SPI MM2 Willemite[3][all]
#DATE        : 13-MAR-2025
#TIME        : 14:06
#OWNER       : Unknown
#NPOINTS     : 4096
#NCOLUMNS    : 1
#XUNITS      : eV
#YUNITS      : counts
#DATATYPE    : Y
#XPERCHAN    : 9.99778
#OFFSET      : 1.69135
#BEAMKV      : 20
#SIGNALTYPE  : EDS
#ELEVANGLE   : 35
#AZIMANGLE   : 0
#LIVETIME    : 239.633
#REALTIME    : 257.443
#PROBECUR    : 1.0264
#TAUWIND     : 0
#TDEADLYR    : 0
#TACTLYR     : 0.045
#TALWIND     : 0.025
#CHOFFSET    : 0.0
#XLABEL      : Energy (eV)
#YLABEL      : Counts
#XPOSITION   : 2.72799
#YPOSITION   : 6.31068
#ZPOSITION   : 31.03511
#EDSDET      : SD
##SPECIMEN   : SPI MM2 Willemite[3][all]
##DET_HASH   : 12273538-fd48-a23f-0a19-f1e6fa85caef
##CALIB_HASH : 6abaa72c-aa41-8738-0be9-f592914732f3
##WORKING    : 15.0 mm
##DET_NAME   : EDAX All
##DET_MODE   : MediumLE
#SPECTRUM    :
15,
256,
11264,
6138,
42456,
4860,
12054,
145986,
6036,
3716,
3311,
4382,
24538,
13416,
3466,
3619,
3891,
3790,
3735,
3773,
3868,
3550,
3638,
3566,
3393,
3398,
3217,
3107,
3057,
2949,
2798,
2794,
2681,
2546,
2570,
2476,
2460,
2242,
2281,
2127,
2264,
2274,
9000,
2519,
1866,
1928,
2605,
1955,
1697,
1639,
1621,
1553,
1460,
1537,
1413,
1400,
1270,
1273,
1274,
1165,
1494,
20464,
34540,
1774,
1064,
1088,
1013,
1172,
5835,
3372,
796,
768,
703,
693,
730,
668,
629,
638,
645,
585,
521,
566,
512,
464,
500,
515,
479,
439,
385,
417,
382,
366,
377,
349,
322,
287,
294,
265,
251,
268,
219,
219,
218,
226,
214,
197,
183,
153,
156,
165,
148,
125,
138,
111,
111,
103,
101,
93,
90,
91,
78,
71,
79,
70,
80,
57,
41,
39,
40,
36,
54,
37,
30,
24,
18,
24,
15,
12,
10,
8,
5,
5,
5,
0,
1,
1,
1,
4,
2,
0,
0,
1,
0,
0,
1,
0,
1,
0,
0,
0,
0,
0,
0,
0,
0,
0,
1,
0,
0,
0,
0,
0,
0,
0,
0,
0,
1,
0,
0,
0,
0,
0,
0,
0,
0,
0,
0,
0,
0,
0,
1,
0,
0,
0,
1,
0,
0,
0,
0,
0,
0,
0,
0,
0,
0,
0,
0,
0,
0,
0,
0,
0,
0,
0,
0,
0,
0,
0,
0,
0,
0,
0,
0,
0,
0,
0,
0,
0,
0,
0,
0,
0,
0,
0,
0,
0,
0,
0,
0,
0,
0,
0,
0,
0,
0,
0,
0,
0,
0,
0,
0,
0,
0,
0,
0,
0,
0,
0,
0,
0,
0,
0,
0,
0,
0,
0,
0,
0,
0,
0,
0,
0,
0,
0,
0,
0,
0,
0,
0,
0,
0,
0,
0,
0,
0,
0,
0,
0,
0,
0,
0,
0,
0,
0,
#ENDOFDATA   :