File: N132962/Quantification/20 keV/MMM2/SPI MM2 Zircon[7][4].msa
#FORMAT      : EMSA/MAS Spectral Data File
#VERSION     : 1.0
#TITLE       : SPI MM2 Zircon[7][all]
#DATE        : 13-MAR-2025
#TIME        : 13:52
#OWNER       : Unknown
#NPOINTS     : 4096
#NCOLUMNS    : 1
#XUNITS      : eV
#YUNITS      : counts
#DATATYPE    : Y
#XPERCHAN    : 9.99778
#OFFSET      : 1.69135
#BEAMKV      : 20
#SIGNALTYPE  : EDS
#ELEVANGLE   : 35
#AZIMANGLE   : 0
#LIVETIME    : 239.472
#REALTIME    : 257.0025
#PROBECUR    : 1.0264
#TAUWIND     : 0
#TDEADLYR    : 0
#TACTLYR     : 0.045
#TALWIND     : 0.025
#CHOFFSET    : 0.0
#XLABEL      : Energy (eV)
#YLABEL      : Counts
#XPOSITION   : -2.68994
#YPOSITION   : 6.62533
#ZPOSITION   : 31.03511
#EDSDET      : SD
##SPECIMEN   : SPI MM2 Zircon[7][all]
##DET_HASH   : 12273538-fd48-a23f-0a19-f1e6fa85caef
##CALIB_HASH : 6abaa72c-aa41-8738-0be9-f592914732f3
##WORKING    : 15.0 mm
##DET_NAME   : EDAX All
##DET_MODE   : MediumLE
#SPECTRUM    :
23,
724,
14497,
4407,
25222,
3496,
4393,
4767,
5479,
6475,
7080,
7790,
50807,
32161,
27746,
102042,
12134,
3320,
4119,
3004,
3081,
3186,
3112,
3132,
3153,
3241,
3043,
3265,
3052,
2977,
2947,
2762,
2742,
2615,
2546,
2554,
2435,
2456,
2314,
2343,
2225,
2191,
2128,
2116,
2007,
2019,
2151,
1850,
1858,
1664,
1670,
1689,
1576,
1601,
1521,
1421,
1635,
1493,
1312,
1275,
1240,
1189,
1178,
1102,
1194,
1141,
1083,
1014,
999,
975,
913,
864,
858,
849,
847,
851,
801,
741,
719,
663,
665,
621,
650,
562,
519,
515,
510,
501,
506,
478,
412,
411,
387,
402,
353,
377,
356,
326,
299,
283,
268,
289,
247,
261,
228,
225,
202,
197,
173,
168,
173,
179,
481,
344,
173,
123,
128,
87,
111,
82,
87,
89,
72,
56,
79,
84,
103,
60,
49,
52,
43,
37,
27,
28,
33,
26,
15,
24,
12,
6,
6,
6,
2,
2,
1,
0,
0,
0,
1,
0,
1,
0,
0,
0,
1,
1,
0,
0,
0,
0,
0,
0,
0,
0,
0,
0,
0,
0,
0,
0,
0,
0,
0,
0,
0,
0,
0,
0,
0,
0,
0,
0,
0,
0,
0,
0,
0,
0,
0,
0,
0,
0,
0,
0,
0,
0,
0,
0,
0,
0,
0,
0,
0,
0,
0,
0,
0,
0,
1,
0,
0,
0,
0,
0,
0,
0,
0,
0,
0,
0,
0,
0,
0,
0,
0,
0,
0,
0,
0,
0,
0,
0,
0,
0,
0,
0,
0,
0,
0,
0,
0,
0,
0,
0,
0,
0,
0,
0,
0,
0,
0,
0,
0,
0,
0,
0,
0,
0,
0,
0,
0,
0,
0,
0,
0,
0,
0,
0,
0,
0,
0,
0,
0,
0,
0,
0,
0,
0,
0,
0,
0,
0,
0,
0,
0,
0,
0,
0,
0,
0,
0,
0,
0,
0,
#ENDOFDATA   :