File: N132962/Quantification/20 keV/MMM2/SPI MM2 SPI Obsidian[2][4].msa
#FORMAT      : EMSA/MAS Spectral Data File
#VERSION     : 1.0
#TITLE       : SPI MM2 SPI Obsidian[2][all]
#DATE        : 13-MAR-2025
#TIME        : 09:57
#OWNER       : Unknown
#NPOINTS     : 4096
#NCOLUMNS    : 1
#XUNITS      : eV
#YUNITS      : counts
#DATATYPE    : Y
#XPERCHAN    : 9.99778
#OFFSET      : 1.69135
#BEAMKV      : 20
#SIGNALTYPE  : EDS
#ELEVANGLE   : 35
#AZIMANGLE   : 0
#LIVETIME    : 239.876
#REALTIME    : 256.301
#PROBECUR    : 1.02627
#TAUWIND     : 0
#TDEADLYR    : 0
#TACTLYR     : 0.045
#TALWIND     : 0.025
#CHOFFSET    : 0.0
#XLABEL      : Energy (eV)
#YLABEL      : Counts
#XPOSITION   : 0.07007
#YPOSITION   : -2.97506
#ZPOSITION   : 31.03509
#EDSDET      : SD
##SPECIMEN   : SPI MM2 SPI Obsidian[2][all]
##D2STDCMP   : SPI Obsidian,(O:49.01),(Na:2.77),(Mg:0.06),(Al:6.9),(Si:35.66),(K:3.58),(Ca:0.63),(Ti:0.06),(Mn:0.04),(Fe:0.59),5.0
##DET_HASH   : 12273538-fd48-a23f-0a19-f1e6fa85caef
##CALIB_HASH : 6abaa72c-aa41-8738-0be9-f592914732f3
##WORKING    : 15.0 mm
##DET_NAME   : EDAX All
##DET_MODE   : MediumLE
#SPECTRUM    :
31,
180,
8393,
5723,
57703,
2641,
2757,
6517,
4264,
4695,
8222,
25130,
87563,
40771,
2231,
2205,
2947,
2174,
2288,
2210,
2236,
2184,
2154,
4119,
12295,
2848,
4394,
2236,
1750,
1905,
1570,
1463,
1738,
1457,
1420,
1376,
1333,
1241,
1239,
1208,
1130,
1129,
1103,
1022,
979,
1220,
1906,
901,
850,
841,
851,
810,
776,
751,
680,
658,
600,
635,
610,
600,
591,
532,
537,
506,
459,
515,
453,
421,
441,
427,
389,
384,
384,
347,
330,
330,
291,
276,
291,
309,
265,
250,
257,
227,
236,
224,
205,
181,
189,
172,
191,
162,
160,
145,
139,
147,
120,
129,
97,
109,
118,
118,
105,
85,
94,
82,
63,
56,
61,
55,
73,
66,
62,
52,
37,
35,
51,
37,
32,
26,
32,
31,
28,
24,
20,
20,
18,
24,
19,
11,
10,
5,
12,
7,
7,
4,
5,
4,
5,
2,
2,
0,
0,
0,
0,
0,
0,
0,
0,
0,
0,
0,
0,
0,
0,
0,
0,
0,
0,
0,
0,
0,
0,
0,
0,
0,
0,
0,
0,
0,
0,
0,
0,
0,
0,
0,
0,
0,
0,
0,
0,
0,
0,
0,
0,
0,
0,
0,
0,
0,
0,
0,
0,
0,
0,
0,
0,
0,
0,
0,
0,
0,
0,
0,
0,
0,
0,
0,
0,
0,
0,
0,
0,
0,
0,
0,
0,
0,
0,
0,
0,
0,
0,
0,
0,
0,
0,
0,
0,
0,
0,
0,
0,
0,
0,
0,
0,
0,
0,
0,
0,
0,
0,
0,
0,
0,
0,
0,
0,
0,
0,
0,
0,
0,
0,
0,
0,
0,
0,
0,
0,
0,
0,
0,
0,
0,
0,
0,
0,
0,
0,
0,
0,
0,
0,
0,
0,
0,
0,
0,
0,
0,
0,
0,
0,
0,
0,
0,
0,
0,
0,
0,
0,
0,
#ENDOFDATA   :