File: N132962/Quantification/15 keV/Mengason MM2/MMM2 Zircon[3][4].msa
#FORMAT      : EMSA/MAS Spectral Data File
#VERSION     : 1.0
#TITLE       : MMM2 Zircon[3][all]
#DATE        : 29-SEP-2025
#TIME        : 01:09
#OWNER       : Unknown
#NPOINTS     : 4096
#NCOLUMNS    : 1
#XUNITS      : eV
#YUNITS      : counts
#DATATYPE    : Y
#XPERCHAN    : 9.99778
#OFFSET      : 1.69135
#BEAMKV      : 15
#SIGNALTYPE  : EDS
#ELEVANGLE   : 35
#AZIMANGLE   : 0
#LIVETIME    : 240.273
#REALTIME    : 257.07
#PROBECUR    : 1.21248
#TAUWIND     : 0
#TDEADLYR    : 0
#TACTLYR     : 0.045
#TALWIND     : 0.025
#CHOFFSET    : 0.0
#XLABEL      : Energy (eV)
#YLABEL      : Counts
#XPOSITION   : -13.67668
#YPOSITION   : 6.97872
#ZPOSITION   : 34.11879
#EDSDET      : SD
##SPECIMEN   : MMM2 Zircon[3][all]
##D2STDCMP   : Zircon,(O:34.9128),(Si:15.3216),(Zr:49.7657),8.0
##DET_HASH   : 12273538-fd48-a23f-0a19-f1e6fa85caef
##CALIB_HASH : 6abaa72c-aa41-8738-0be9-f592914732f3
##WORKING    : 15.0 mm
##DET_NAME   : EDAX All
##DET_MODE   : MediumLE
#SPECTRUM    :
24,
1019,
17979,
6355,
36716,
4542,
5386,
6189,
6942,
7483,
7740,
8033,
48137,
30325,
26523,
93217,
11687,
3682,
4411,
3217,
3087,
3147,
3012,
3081,
3049,
3080,
2853,
2891,
2812,
2701,
2625,
2476,
2304,
2168,
2239,
2166,
2071,
1950,
2022,
1882,
1806,
1633,
1691,
1583,
1590,
1474,
1582,
1342,
1341,
1235,
1294,
1242,
1210,
1174,
1101,
1049,
1055,
1012,
897,
927,
836,
804,
760,
792,
780,
713,
719,
638,
630,
622,
550,
496,
540,
497,
500,
473,
434,
409,
394,
357,
364,
340,
291,
295,
253,
255,
217,
212,
205,
197,
188,
165,
150,
134,
131,
109,
90,
83,
86,
64,
68,
53,
39,
28,
19,
22,
11,
3,
0,
0,
0,
0,
2,
1,
0,
0,
0,
0,
0,
1,
0,
1,
0,
0,
2,
0,
1,
1,
0,
0,
0,
0,
0,
0,
0,
0,
0,
0,
0,
1,
0,
0,
0,
0,
0,
0,
0,
0,
0,
0,
0,
1,
0,
0,
1,
0,
0,
0,
0,
0,
0,
0,
0,
0,
0,
0,
0,
0,
0,
0,
0,
0,
0,
0,
0,
0,
0,
0,
0,
0,
0,
0,
0,
0,
0,
0,
0,
0,
0,
0,
0,
0,
0,
0,
0,
0,
0,
0,
0,
0,
0,
0,
0,
0,
0,
0,
0,
0,
0,
0,
0,
0,
0,
0,
0,
0,
0,
0,
0,
0,
0,
0,
0,
0,
0,
0,
0,
0,
0,
0,
0,
0,
0,
0,
0,
0,
0,
0,
0,
0,
0,
0,
0,
0,
0,
0,
0,
0,
0,
0,
0,
0,
0,
0,
0,
0,
0,
0,
0,
0,
0,
0,
0,
0,
0,
0,
0,
0,
0,
0,
0,
0,
0,
0,
0,
0,
0,
0,
0,
0,
0,
0,
0,
0,
0,
0,
0,
0,
0,
0,
0,
0,
0,
0,
#ENDOFDATA   :