File: N132962/Quantification/15 keV/Mengason MM2/MMM2 Willemite[0][4].msa
#FORMAT      : EMSA/MAS Spectral Data File
#VERSION     : 1.0
#TITLE       : MMM2 Willemite[0][all]
#DATE        : 28-SEP-2025
#TIME        : 23:42
#OWNER       : Unknown
#NPOINTS     : 4096
#NCOLUMNS    : 1
#XUNITS      : eV
#YUNITS      : counts
#DATATYPE    : Y
#XPERCHAN    : 9.99778
#OFFSET      : 1.69135
#BEAMKV      : 15
#SIGNALTYPE  : EDS
#ELEVANGLE   : 35
#AZIMANGLE   : 0
#LIVETIME    : 240.274
#REALTIME    : 257.962
#PROBECUR    : 1.21079
#TAUWIND     : 0
#TDEADLYR    : 0
#TACTLYR     : 0.045
#TALWIND     : 0.025
#CHOFFSET    : 0.0
#XLABEL      : Energy (eV)
#YLABEL      : Counts
#XPOSITION   : -11.59726
#YPOSITION   : 2.23171
#ZPOSITION   : 34.11879
#EDSDET      : SD
##SPECIMEN   : MMM2 Willemite[0][all]
##DET_HASH   : 12273538-fd48-a23f-0a19-f1e6fa85caef
##CALIB_HASH : 6abaa72c-aa41-8738-0be9-f592914732f3
##WORKING    : 15.0 mm
##DET_NAME   : EDAX All
##DET_MODE   : MediumLE
#SPECTRUM    :
20,
353,
15141,
9323,
59086,
6608,
14896,
163635,
7755,
5037,
4401,
5519,
26786,
14532,
3928,
3988,
4177,
3862,
3818,
3658,
3750,
3541,
3267,
3214,
3087,
2956,
2801,
2725,
2647,
2512,
2512,
2323,
2317,
2105,
1979,
2026,
1877,
1890,
1749,
1693,
1624,
1702,
7111,
1996,
1430,
1390,
1933,
1486,
1185,
1280,
1147,
1081,
1106,
1037,
974,
971,
880,
852,
837,
786,
891,
8135,
13308,
921,
626,
699,
706,
672,
2399,
1408,
470,
449,
465,
384,
417,
388,
354,
371,
319,
290,
271,
282,
243,
268,
258,
216,
196,
204,
181,
159,
150,
151,
129,
118,
103,
86,
90,
71,
67,
76,
62,
40,
36,
33,
31,
9,
9,
5,
2,
3,
0,
0,
1,
0,
0,
0,
0,
2,
2,
0,
1,
1,
2,
2,
3,
0,
0,
0,
0,
0,
0,
2,
0,
1,
0,
0,
0,
0,
0,
0,
0,
0,
0,
0,
1,
0,
0,
0,
0,
1,
0,
0,
1,
0,
0,
0,
0,
0,
0,
0,
0,
0,
0,
0,
0,
0,
0,
0,
0,
0,
0,
1,
0,
0,
1,
0,
0,
0,
0,
0,
0,
0,
0,
0,
0,
0,
0,
0,
0,
0,
0,
0,
0,
0,
0,
0,
0,
0,
0,
0,
0,
0,
0,
0,
0,
0,
0,
0,
0,
0,
0,
0,
0,
0,
0,
0,
0,
0,
0,
0,
0,
0,
0,
0,
0,
0,
0,
0,
0,
0,
0,
0,
0,
0,
0,
0,
0,
0,
0,
0,
0,
0,
0,
0,
0,
0,
0,
0,
0,
0,
0,
0,
0,
0,
0,
0,
0,
0,
0,
0,
0,
0,
0,
0,
0,
0,
0,
0,
0,
0,
0,
0,
0,
0,
0,
0,
0,
0,
0,
0,
0,
0,
0,
0,
0,
0,
0,
0,
0,
0,
0,
0,
0,
0,
#ENDOFDATA   :