File: N132962/Quantification/15 keV/Mengason MM2/MMM2 Pentlandite[7][4].msa
#FORMAT      : EMSA/MAS Spectral Data File
#VERSION     : 1.0
#TITLE       : MMM2 Pentlandite[7][all]
#DATE        : 28-SEP-2025
#TIME        : 21:46
#OWNER       : Unknown
#NPOINTS     : 4096
#NCOLUMNS    : 1
#XUNITS      : eV
#YUNITS      : counts
#DATATYPE    : Y
#XPERCHAN    : 9.99778
#OFFSET      : 1.69135
#BEAMKV      : 15
#SIGNALTYPE  : EDS
#ELEVANGLE   : 35
#AZIMANGLE   : 0
#LIVETIME    : 240.245
#REALTIME    : 257.831
#PROBECUR    : 1.21217
#TAUWIND     : 0
#TDEADLYR    : 0
#TACTLYR     : 0.045
#TALWIND     : 0.025
#CHOFFSET    : 0.0
#XLABEL      : Energy (eV)
#YLABEL      : Counts
#XPOSITION   : -15.84511
#YPOSITION   : -2.33189
#ZPOSITION   : 34.11879
#EDSDET      : SD
##SPECIMEN   : MMM2 Pentlandite[7][all]
##DET_HASH   : 12273538-fd48-a23f-0a19-f1e6fa85caef
##CALIB_HASH : 6abaa72c-aa41-8738-0be9-f592914732f3
##WORKING    : 15.0 mm
##DET_NAME   : EDAX All
##DET_MODE   : MediumLE
#SPECTRUM    :
24,
621,
15821,
4795,
16871,
67081,
87415,
4590,
4667,
5360,
5866,
6150,
6349,
6342,
5607,
6084,
56033,
43839,
9706,
3918,
3779,
3867,
3624,
3619,
3402,
3230,
3144,
2939,
2952,
2872,
2789,
2612,
2512,
2784,
2319,
2225,
2208,
2078,
2146,
1999,
1946,
1866,
1799,
1726,
1781,
9876,
27216,
1740,
1457,
1727,
4548,
2879,
1507,
17637,
8794,
1142,
1018,
1042,
1357,
3749,
1098,
805,
835,
778,
749,
675,
717,
675,
622,
601,
603,
557,
558,
502,
488,
469,
431,
423,
377,
361,
359,
327,
315,
302,
255,
278,
252,
218,
229,
202,
181,
183,
142,
136,
138,
111,
104,
96,
78,
78,
48,
47,
45,
49,
35,
27,
12,
9,
4,
4,
0,
4,
5,
2,
2,
2,
0,
0,
1,
0,
1,
0,
1,
2,
0,
3,
0,
0,
1,
0,
2,
2,
2,
0,
0,
1,
0,
0,
0,
0,
1,
0,
1,
0,
0,
1,
2,
1,
0,
1,
0,
0,
0,
0,
1,
0,
0,
0,
0,
0,
0,
0,
0,
0,
0,
0,
0,
0,
0,
0,
0,
0,
0,
0,
0,
0,
0,
0,
0,
0,
0,
0,
0,
0,
0,
0,
0,
0,
0,
0,
0,
0,
0,
0,
0,
0,
0,
0,
0,
0,
0,
0,
0,
0,
0,
0,
0,
0,
0,
0,
0,
0,
0,
0,
0,
0,
0,
0,
0,
0,
0,
0,
0,
0,
0,
0,
0,
0,
0,
0,
0,
0,
0,
0,
0,
0,
0,
0,
0,
0,
0,
0,
0,
0,
0,
0,
0,
0,
0,
0,
0,
0,
0,
0,
0,
0,
0,
0,
0,
0,
0,
0,
0,
0,
0,
0,
0,
0,
0,
0,
0,
0,
0,
0,
0,
0,
0,
0,
0,
0,
0,
0,
0,
0,
0,
0,
0,
0,
0,
0,
0,
0,
0,
0,
#ENDOFDATA   :