File: N132962/Quantification/15 keV/Mengason MM2/MMM2 SrTiO3[0][4].msa
#FORMAT      : EMSA/MAS Spectral Data File
#VERSION     : 1.0
#TITLE       : MMM2 SrTiO3[0][all]
#DATE        : 29-SEP-2025
#TIME        : 00:13
#OWNER       : Unknown
#NPOINTS     : 4096
#NCOLUMNS    : 1
#XUNITS      : eV
#YUNITS      : counts
#DATATYPE    : Y
#XPERCHAN    : 9.99778
#OFFSET      : 1.69135
#BEAMKV      : 15
#SIGNALTYPE  : EDS
#ELEVANGLE   : 35
#AZIMANGLE   : 0
#LIVETIME    : 240.313
#REALTIME    : 256.6884
#PROBECUR    : 1.21151
#TAUWIND     : 0
#TDEADLYR    : 0
#TACTLYR     : 0.045
#TALWIND     : 0.025
#CHOFFSET    : 0.0
#XLABEL      : Energy (eV)
#YLABEL      : Counts
#XPOSITION   : -15.19638
#YPOSITION   : 4.54696
#ZPOSITION   : 34.11879
#EDSDET      : SD
##SPECIMEN   : MMM2 SrTiO3[0][all]
##D2STDCMP   : SrTiO3,(O:26.1592),(Ti:26.0877),(Sr:47.7532)
##DET_HASH   : 12273538-fd48-a23f-0a19-f1e6fa85caef
##CALIB_HASH : 6abaa72c-aa41-8738-0be9-f592914732f3
##WORKING    : 15.0 mm
##DET_NAME   : EDAX All
##DET_MODE   : MediumLE
#SPECTRUM    :
25,
677,
16227,
13544,
23149,
4285,
5556,
5961,
6749,
7319,
7703,
11540,
11711,
201741,
16170,
4325,
4386,
3996,
3755,
3831,
4113,
3670,
3595,
3539,
3477,
3341,
3445,
3149,
3038,
2820,
2820,
3373,
54031,
7850,
2660,
9123,
3249,
1955,
2021,
2007,
1947,
1786,
1737,
1697,
1664,
1702,
1649,
1545,
1522,
1398,
1391,
1278,
1208,
1231,
1143,
1101,
1109,
1007,
978,
946,
909,
891,
854,
797,
797,
741,
743,
628,
636,
651,
622,
615,
582,
542,
560,
491,
476,
443,
447,
404,
372,
360,
345,
330,
338,
283,
265,
251,
232,
217,
172,
178,
177,
157,
124,
104,
95,
91,
89,
61,
86,
40,
47,
36,
27,
21,
6,
5,
1,
0,
1,
2,
1,
1,
1,
0,
1,
0,
0,
0,
0,
0,
2,
1,
0,
2,
0,
0,
2,
1,
1,
1,
0,
0,
1,
1,
0,
1,
0,
0,
0,
0,
0,
1,
0,
0,
0,
1,
0,
0,
0,
0,
0,
1,
0,
0,
0,
0,
0,
0,
0,
1,
0,
0,
0,
0,
0,
0,
0,
0,
0,
0,
0,
0,
0,
0,
0,
0,
0,
0,
0,
0,
0,
0,
0,
0,
0,
0,
0,
0,
0,
0,
0,
0,
0,
0,
0,
0,
0,
0,
0,
0,
0,
0,
0,
0,
0,
0,
0,
0,
0,
0,
0,
0,
0,
0,
0,
0,
0,
0,
0,
0,
0,
0,
0,
0,
0,
0,
0,
0,
0,
0,
0,
0,
0,
0,
0,
0,
0,
0,
0,
0,
0,
0,
0,
0,
0,
0,
0,
0,
0,
0,
0,
0,
0,
0,
0,
0,
0,
0,
0,
0,
0,
0,
0,
0,
0,
0,
0,
0,
0,
0,
0,
0,
0,
0,
0,
0,
0,
0,
0,
0,
0,
0,
0,
0,
0,
0,
0,
0,
0,
0,
0,
0,
#ENDOFDATA   :