File: N132962/Quantification/15 keV/Mengason MM2/MMM2 Scheelite[2][4].msa
#FORMAT      : EMSA/MAS Spectral Data File
#VERSION     : 1.0
#TITLE       : MMM2 Scheelite[2][all]
#DATE        : 29-SEP-2025
#TIME        : 00:26
#OWNER       : Unknown
#NPOINTS     : 4096
#NCOLUMNS    : 1
#XUNITS      : eV
#YUNITS      : counts
#DATATYPE    : Y
#XPERCHAN    : 9.99778
#OFFSET      : 1.69135
#BEAMKV      : 15
#SIGNALTYPE  : EDS
#ELEVANGLE   : 35
#AZIMANGLE   : 0
#LIVETIME    : 240.4
#REALTIME    : 260.777
#PROBECUR    : 1.21186
#TAUWIND     : 0
#TDEADLYR    : 0
#TACTLYR     : 0.045
#TALWIND     : 0.025
#CHOFFSET    : 0.0
#XLABEL      : Energy (eV)
#YLABEL      : Counts
#XPOSITION   : -17.54249
#YPOSITION   : 4.48534
#ZPOSITION   : 34.11879
#EDSDET      : SD
##SPECIMEN   : MMM2 Scheelite[2][all]
##DET_HASH   : 12273538-fd48-a23f-0a19-f1e6fa85caef
##CALIB_HASH : 6abaa72c-aa41-8738-0be9-f592914732f3
##WORKING    : 15.0 mm
##DET_NAME   : EDAX All
##DET_MODE   : MediumLE
#SPECTRUM    :
26,
703,
23700,
6691,
28712,
6657,
7937,
8417,
9420,
9972,
22211,
10489,
21448,
173902,
7853,
6704,
6004,
5925,
5198,
4960,
5322,
4936,
4862,
4914,
4739,
4978,
30231,
12512,
5688,
7901,
3994,
3804,
3834,
3748,
3532,
3540,
3423,
3375,
3158,
3258,
2986,
2951,
2962,
2704,
2651,
2636,
2645,
2432,
2338,
2282,
2260,
2151,
2216,
2495,
2018,
1896,
1895,
1824,
1749,
3384,
11333,
2284,
1557,
1503,
1436,
1392,
1301,
1322,
1802,
3705,
1962,
2749,
1372,
994,
905,
910,
797,
854,
769,
781,
955,
879,
709,
668,
626,
556,
526,
468,
456,
390,
348,
335,
329,
327,
289,
245,
214,
203,
186,
165,
153,
126,
91,
82,
63,
42,
18,
6,
2,
3,
2,
5,
0,
3,
2,
3,
6,
0,
3,
0,
0,
2,
8,
1,
1,
2,
0,
2,
0,
0,
1,
1,
0,
0,
0,
0,
0,
1,
2,
1,
0,
1,
0,
1,
1,
1,
0,
0,
0,
1,
1,
0,
0,
0,
0,
0,
0,
1,
0,
0,
0,
0,
0,
0,
1,
0,
0,
0,
0,
0,
0,
0,
0,
0,
0,
0,
0,
1,
0,
0,
0,
0,
0,
0,
0,
0,
0,
0,
0,
0,
0,
0,
0,
0,
0,
0,
0,
0,
0,
0,
0,
0,
0,
0,
0,
0,
0,
0,
0,
0,
0,
0,
0,
0,
0,
0,
0,
0,
0,
0,
0,
0,
0,
0,
0,
0,
0,
0,
0,
0,
0,
0,
0,
0,
0,
0,
0,
0,
0,
0,
0,
0,
0,
0,
0,
0,
0,
0,
0,
0,
0,
0,
0,
0,
0,
0,
0,
0,
0,
0,
0,
0,
0,
0,
0,
0,
0,
0,
0,
0,
0,
0,
0,
0,
0,
0,
0,
0,
0,
0,
0,
0,
0,
0,
0,
0,
0,
0,
0,
0,
0,
0,
0,
0,
#ENDOFDATA   :