File: N132962/Quantification/15 keV/Mengason MM2/MMM2 Willemite[1][4].msa
#FORMAT      : EMSA/MAS Spectral Data File
#VERSION     : 1.0
#TITLE       : MMM2 Willemite[1][all]
#DATE        : 28-SEP-2025
#TIME        : 23:43
#OWNER       : Unknown
#NPOINTS     : 4096
#NCOLUMNS    : 1
#XUNITS      : eV
#YUNITS      : counts
#DATATYPE    : Y
#XPERCHAN    : 9.99778
#OFFSET      : 1.69135
#BEAMKV      : 15
#SIGNALTYPE  : EDS
#ELEVANGLE   : 35
#AZIMANGLE   : 0
#LIVETIME    : 240.269
#REALTIME    : 257.9
#PROBECUR    : 1.21079
#TAUWIND     : 0
#TDEADLYR    : 0
#TACTLYR     : 0.045
#TALWIND     : 0.025
#CHOFFSET    : 0.0
#XLABEL      : Energy (eV)
#YLABEL      : Counts
#XPOSITION   : -11.6
#YPOSITION   : 2.17759
#ZPOSITION   : 34.11879
#EDSDET      : SD
##SPECIMEN   : MMM2 Willemite[1][all]
##DET_HASH   : 12273538-fd48-a23f-0a19-f1e6fa85caef
##CALIB_HASH : 6abaa72c-aa41-8738-0be9-f592914732f3
##WORKING    : 15.0 mm
##DET_NAME   : EDAX All
##DET_MODE   : MediumLE
#SPECTRUM    :
33,
348,
15239,
9320,
59037,
6571,
14450,
162514,
7855,
5022,
4256,
5504,
27264,
14555,
3966,
4081,
4004,
3808,
3744,
3708,
3698,
3404,
3276,
3179,
3012,
3048,
2852,
2655,
2599,
2448,
2442,
2326,
2245,
2169,
2122,
2030,
1928,
1880,
1802,
1736,
1625,
1727,
7522,
2018,
1400,
1432,
1952,
1471,
1212,
1218,
1161,
1097,
1065,
1032,
1002,
884,
896,
881,
825,
840,
894,
8144,
13281,
915,
659,
656,
631,
729,
2446,
1464,
483,
452,
409,
425,
432,
371,
398,
378,
360,
278,
321,
289,
278,
249,
235,
225,
188,
178,
141,
174,
134,
125,
133,
116,
116,
93,
94,
76,
59,
77,
47,
43,
30,
23,
19,
11,
11,
3,
0,
3,
0,
0,
2,
2,
1,
1,
1,
0,
1,
0,
1,
0,
0,
3,
1,
0,
1,
0,
1,
0,
0,
0,
0,
2,
0,
0,
0,
0,
0,
1,
1,
1,
1,
0,
0,
0,
0,
0,
0,
0,
0,
0,
0,
0,
0,
0,
0,
0,
0,
0,
0,
0,
0,
0,
0,
0,
0,
0,
0,
0,
0,
0,
0,
0,
0,
0,
0,
0,
0,
0,
0,
0,
0,
0,
0,
0,
0,
0,
0,
0,
0,
0,
0,
0,
0,
0,
0,
0,
0,
0,
0,
0,
0,
0,
0,
0,
0,
0,
0,
0,
0,
0,
0,
0,
0,
0,
0,
0,
0,
0,
0,
0,
0,
0,
0,
0,
0,
0,
0,
0,
0,
0,
0,
0,
0,
0,
0,
0,
0,
0,
0,
0,
0,
0,
0,
0,
0,
0,
0,
0,
0,
0,
0,
0,
0,
0,
0,
0,
0,
0,
0,
0,
0,
0,
0,
0,
0,
0,
0,
0,
0,
0,
0,
0,
0,
0,
0,
0,
0,
0,
0,
0,
0,
0,
0,
0,
0,
0,
0,
0,
0,
0,
0,
0,
#ENDOFDATA   :