File: N132962/Quantification/15 keV/Mengason MM2/MMM2 Pyrite[3][4].msa
#FORMAT      : EMSA/MAS Spectral Data File
#VERSION     : 1.0
#TITLE       : MMM2 Pyrite[3][all]
#DATE        : 28-SEP-2025
#TIME        : 20:49
#OWNER       : Unknown
#NPOINTS     : 4096
#NCOLUMNS    : 1
#XUNITS      : eV
#YUNITS      : counts
#DATATYPE    : Y
#XPERCHAN    : 9.99778
#OFFSET      : 1.69135
#BEAMKV      : 15
#SIGNALTYPE  : EDS
#ELEVANGLE   : 35
#AZIMANGLE   : 0
#LIVETIME    : 240.238
#REALTIME    : 259.052
#PROBECUR    : 1.21333
#TAUWIND     : 0
#TDEADLYR    : 0
#TACTLYR     : 0.045
#TALWIND     : 0.025
#CHOFFSET    : 0.0
#XLABEL      : Energy (eV)
#YLABEL      : Counts
#XPOSITION   : -11.70253
#YPOSITION   : -4.48668
#ZPOSITION   : 34.11879
#EDSDET      : SD
##SPECIMEN   : MMM2 Pyrite[3][all]
##D2STDCMP   : Pyrite,(S:53.4528),(Fe:46.5472)
##DET_HASH   : 12273538-fd48-a23f-0a19-f1e6fa85caef
##CALIB_HASH : 6abaa72c-aa41-8738-0be9-f592914732f3
##WORKING    : 15.0 mm
##DET_NAME   : EDAX All
##DET_MODE   : MediumLE
#SPECTRUM    :
24,
983,
14977,
3695,
18874,
84755,
4765,
4858,
5429,
6063,
6394,
6527,
6654,
6708,
5779,
6338,
91532,
69984,
12672,
3291,
3227,
3380,
3079,
2989,
3023,
2848,
2683,
2648,
2577,
2440,
2292,
2332,
2301,
2828,
2203,
1989,
1941,
1804,
1815,
1764,
1632,
1647,
1518,
1547,
1574,
12982,
38160,
1648,
1323,
1319,
5467,
3213,
1035,
977,
880,
938,
867,
858,
835,
839,
765,
696,
853,
750,
642,
627,
575,
577,
539,
526,
482,
482,
481,
467,
396,
410,
359,
361,
348,
340,
317,
275,
277,
258,
241,
219,
208,
191,
168,
145,
172,
149,
160,
120,
129,
86,
106,
90,
68,
80,
54,
40,
40,
29,
15,
15,
12,
6,
0,
2,
1,
2,
1,
2,
0,
2,
3,
1,
0,
0,
0,
3,
0,
1,
1,
0,
0,
0,
0,
0,
0,
1,
0,
0,
0,
0,
0,
0,
1,
0,
1,
0,
1,
0,
0,
0,
0,
0,
0,
0,
0,
0,
0,
0,
0,
0,
0,
0,
0,
0,
0,
0,
0,
0,
0,
0,
0,
0,
0,
0,
0,
0,
0,
0,
0,
0,
0,
0,
0,
0,
0,
0,
0,
0,
0,
0,
0,
0,
0,
0,
0,
0,
0,
0,
0,
0,
0,
0,
0,
0,
0,
0,
0,
0,
0,
0,
0,
0,
0,
0,
0,
0,
0,
0,
0,
0,
0,
0,
0,
0,
0,
0,
0,
0,
0,
0,
0,
0,
0,
0,
0,
0,
0,
0,
0,
0,
0,
0,
0,
0,
0,
0,
0,
0,
0,
0,
0,
0,
0,
0,
0,
0,
0,
0,
0,
0,
0,
0,
0,
0,
0,
0,
0,
0,
0,
0,
0,
0,
0,
0,
0,
0,
0,
0,
0,
0,
0,
0,
0,
0,
0,
0,
0,
0,
0,
0,
0,
0,
0,
0,
0,
0,
0,
0,
#ENDOFDATA   :