File: N132962/Quantification/15 keV/Mengason MM2/MMM2 Manganotantalite[5][4].msa
#FORMAT      : EMSA/MAS Spectral Data File
#VERSION     : 1.0
#TITLE       : MMM2 Manganotantalite[5][all]
#DATE        : 28-SEP-2025
#TIME        : 22:56
#OWNER       : Unknown
#NPOINTS     : 4096
#NCOLUMNS    : 1
#XUNITS      : eV
#YUNITS      : counts
#DATATYPE    : Y
#XPERCHAN    : 9.99778
#OFFSET      : 1.69135
#BEAMKV      : 15
#SIGNALTYPE  : EDS
#ELEVANGLE   : 35
#AZIMANGLE   : 0
#LIVETIME    : 240.307
#REALTIME    : 259.757
#PROBECUR    : 1.2132
#TAUWIND     : 0
#TDEADLYR    : 0
#TACTLYR     : 0.045
#TALWIND     : 0.025
#CHOFFSET    : 0.0
#XLABEL      : Energy (eV)
#YLABEL      : Counts
#XPOSITION   : -22.41502
#YPOSITION   : -0.44975
#ZPOSITION   : 34.11879
#EDSDET      : SD
##SPECIMEN   : MMM2 Manganotantalite[5][all]
##DET_HASH   : 12273538-fd48-a23f-0a19-f1e6fa85caef
##CALIB_HASH : 6abaa72c-aa41-8738-0be9-f592914732f3
##WORKING    : 15.0 mm
##DET_NAME   : EDAX All
##DET_MODE   : MediumLE
#SPECTRUM    :
33,
1111,
19102,
8578,
35428,
10600,
7317,
8009,
8793,
11501,
11904,
10405,
123980,
29289,
10960,
15343,
24144,
7443,
5176,
5353,
4821,
4755,
4770,
4668,
4724,
4502,
4423,
4359,
4284,
4154,
3996,
3894,
4636,
3747,
3616,
3617,
3383,
3404,
3265,
3089,
2943,
3492,
17375,
3955,
2660,
3317,
6157,
3045,
2408,
2207,
2491,
2626,
2181,
1992,
2034,
1834,
1870,
2466,
10680,
3240,
1646,
1577,
1466,
1458,
1379,
1459,
2443,
3460,
1884,
2770,
1261,
1090,
963,
893,
907,
841,
869,
929,
1090,
820,
755,
722,
622,
638,
534,
519,
490,
479,
453,
405,
377,
385,
321,
290,
251,
225,
222,
198,
195,
146,
156,
121,
98,
77,
49,
37,
22,
5,
8,
1,
1,
3,
4,
2,
4,
0,
5,
2,
4,
1,
2,
2,
3,
2,
0,
2,
1,
1,
1,
1,
2,
4,
2,
0,
2,
1,
3,
0,
0,
1,
1,
3,
2,
0,
0,
1,
0,
0,
0,
0,
0,
0,
0,
1,
1,
0,
1,
1,
0,
0,
0,
0,
0,
0,
0,
0,
0,
0,
1,
0,
0,
0,
0,
0,
0,
0,
0,
0,
0,
0,
0,
0,
0,
0,
0,
0,
0,
0,
0,
0,
0,
0,
0,
0,
0,
0,
0,
0,
0,
0,
0,
0,
0,
0,
0,
0,
0,
0,
0,
0,
0,
0,
0,
0,
0,
0,
0,
0,
0,
0,
0,
0,
0,
0,
0,
0,
0,
0,
0,
0,
0,
0,
0,
0,
0,
0,
0,
0,
0,
0,
0,
0,
0,
0,
0,
0,
0,
0,
0,
0,
0,
0,
0,
0,
0,
0,
0,
0,
0,
0,
0,
0,
0,
0,
0,
0,
0,
0,
0,
0,
0,
0,
0,
0,
0,
0,
0,
0,
0,
0,
0,
0,
0,
0,
0,
0,
0,
0,
0,
0,
0,
0,
0,
0,
#ENDOFDATA   :