File: N132962/Quantification/15 keV/Mengason MM2/MMM2 Scheelite[3][4].msa
#FORMAT      : EMSA/MAS Spectral Data File
#VERSION     : 1.0
#TITLE       : MMM2 Scheelite[3][all]
#DATE        : 29-SEP-2025
#TIME        : 00:27
#OWNER       : Unknown
#NPOINTS     : 4096
#NCOLUMNS    : 1
#XUNITS      : eV
#YUNITS      : counts
#DATATYPE    : Y
#XPERCHAN    : 9.99778
#OFFSET      : 1.69135
#BEAMKV      : 15
#SIGNALTYPE  : EDS
#ELEVANGLE   : 35
#AZIMANGLE   : 0
#LIVETIME    : 240.298
#REALTIME    : 260.653
#PROBECUR    : 1.21186
#TAUWIND     : 0
#TDEADLYR    : 0
#TACTLYR     : 0.045
#TALWIND     : 0.025
#CHOFFSET    : 0.0
#XLABEL      : Energy (eV)
#YLABEL      : Counts
#XPOSITION   : -17.52098
#YPOSITION   : 4.50566
#ZPOSITION   : 34.11879
#EDSDET      : SD
##SPECIMEN   : MMM2 Scheelite[3][all]
##DET_HASH   : 12273538-fd48-a23f-0a19-f1e6fa85caef
##CALIB_HASH : 6abaa72c-aa41-8738-0be9-f592914732f3
##WORKING    : 15.0 mm
##DET_NAME   : EDAX All
##DET_MODE   : MediumLE
#SPECTRUM    :
31,
663,
24278,
6625,
28344,
6696,
7807,
8591,
9225,
10254,
22528,
10472,
21383,
172744,
7982,
6579,
6073,
5902,
5201,
5127,
5100,
4965,
5021,
4841,
4708,
5145,
30246,
12783,
5449,
8196,
4076,
3804,
3777,
3633,
3493,
3456,
3443,
3287,
3272,
3240,
3131,
3014,
2839,
2783,
2654,
2626,
2650,
2458,
2390,
2287,
2259,
2221,
2275,
2407,
2094,
1919,
1887,
1821,
1821,
3370,
11244,
2328,
1592,
1517,
1388,
1397,
1356,
1348,
1768,
3695,
1769,
2747,
1467,
993,
937,
928,
858,
859,
775,
762,
973,
908,
737,
715,
535,
539,
520,
534,
452,
419,
386,
379,
330,
298,
278,
248,
225,
215,
166,
186,
118,
137,
121,
86,
82,
43,
16,
10,
4,
3,
4,
4,
2,
7,
2,
2,
1,
2,
5,
4,
3,
5,
0,
0,
2,
1,
1,
1,
1,
1,
0,
1,
3,
0,
1,
0,
0,
0,
1,
0,
2,
1,
0,
1,
2,
1,
0,
0,
0,
2,
0,
0,
1,
0,
0,
0,
0,
1,
1,
1,
0,
0,
0,
0,
0,
1,
0,
0,
0,
0,
0,
0,
0,
0,
1,
0,
0,
0,
0,
0,
0,
0,
1,
0,
0,
0,
0,
1,
0,
0,
0,
0,
0,
0,
0,
0,
0,
0,
0,
0,
0,
0,
0,
0,
0,
0,
0,
0,
0,
0,
0,
0,
0,
0,
0,
0,
0,
0,
0,
0,
0,
0,
0,
0,
0,
0,
0,
0,
0,
0,
0,
0,
0,
0,
0,
0,
0,
0,
0,
0,
0,
0,
0,
0,
0,
0,
0,
0,
0,
0,
0,
0,
0,
0,
0,
0,
0,
0,
0,
0,
0,
0,
0,
0,
0,
0,
0,
0,
0,
0,
0,
0,
0,
0,
0,
0,
0,
0,
0,
0,
0,
0,
0,
0,
0,
0,
0,
0,
0,
0,
0,
0,
0,
0,
#ENDOFDATA   :