File: N132962/Quantification/15 keV/Mengason MM2/MMM2 SrTiO3[7][4].msa
#FORMAT      : EMSA/MAS Spectral Data File
#VERSION     : 1.0
#TITLE       : MMM2 SrTiO3[7][all]
#DATE        : 29-SEP-2025
#TIME        : 00:21
#OWNER       : Unknown
#NPOINTS     : 4096
#NCOLUMNS    : 1
#XUNITS      : eV
#YUNITS      : counts
#DATATYPE    : Y
#XPERCHAN    : 9.99778
#OFFSET      : 1.69135
#BEAMKV      : 15
#SIGNALTYPE  : EDS
#ELEVANGLE   : 35
#AZIMANGLE   : 0
#LIVETIME    : 240.255
#REALTIME    : 256.618
#PROBECUR    : 1.21151
#TAUWIND     : 0
#TDEADLYR    : 0
#TACTLYR     : 0.045
#TALWIND     : 0.025
#CHOFFSET    : 0.0
#XLABEL      : Energy (eV)
#YLABEL      : Counts
#XPOSITION   : -15.22907
#YPOSITION   : 4.54523
#ZPOSITION   : 34.11879
#EDSDET      : SD
##SPECIMEN   : MMM2 SrTiO3[7][all]
##D2STDCMP   : SrTiO3,(O:26.1592),(Ti:26.0877),(Sr:47.7532)
##DET_HASH   : 12273538-fd48-a23f-0a19-f1e6fa85caef
##CALIB_HASH : 6abaa72c-aa41-8738-0be9-f592914732f3
##WORKING    : 15.0 mm
##DET_NAME   : EDAX All
##DET_MODE   : MediumLE
#SPECTRUM    :
28,
681,
15958,
13333,
23223,
4303,
5412,
6082,
6623,
7270,
7756,
11683,
11611,
201290,
15634,
4252,
4351,
3918,
3895,
3856,
4075,
3606,
3669,
3608,
3428,
3255,
3505,
3131,
2995,
2944,
2847,
3349,
54414,
8013,
2656,
9053,
3138,
2076,
2046,
1954,
1849,
1832,
1765,
1717,
1675,
1640,
1639,
1462,
1399,
1387,
1322,
1261,
1255,
1199,
1202,
1125,
1130,
1016,
1049,
956,
887,
883,
899,
839,
829,
800,
752,
708,
695,
690,
632,
593,
584,
523,
488,
507,
509,
433,
445,
400,
377,
380,
320,
279,
284,
243,
270,
256,
252,
220,
181,
196,
167,
158,
146,
104,
92,
93,
89,
89,
67,
55,
38,
42,
24,
21,
5,
6,
2,
0,
1,
2,
2,
2,
0,
0,
1,
1,
1,
1,
1,
1,
1,
0,
0,
0,
0,
0,
0,
0,
0,
0,
0,
0,
1,
0,
0,
1,
0,
0,
0,
0,
0,
0,
0,
0,
0,
0,
1,
0,
1,
0,
0,
0,
0,
0,
0,
0,
0,
0,
0,
0,
0,
0,
0,
0,
0,
0,
0,
0,
0,
0,
0,
0,
0,
0,
0,
0,
0,
0,
0,
0,
0,
0,
0,
0,
0,
0,
0,
0,
0,
0,
0,
0,
0,
0,
0,
0,
0,
0,
0,
0,
0,
0,
0,
0,
0,
0,
0,
0,
0,
0,
0,
0,
0,
0,
0,
0,
0,
0,
0,
0,
0,
0,
0,
0,
0,
0,
0,
0,
0,
0,
0,
0,
0,
0,
0,
0,
0,
0,
0,
0,
0,
0,
0,
0,
0,
0,
0,
0,
0,
0,
0,
0,
0,
0,
0,
0,
0,
0,
0,
0,
0,
0,
0,
0,
0,
0,
0,
0,
0,
0,
0,
0,
0,
0,
0,
0,
0,
0,
0,
0,
0,
0,
0,
0,
0,
0,
0,
0,
0,
0,
0,
0,
#ENDOFDATA   :