File: N132962/Quantification/15 keV/Mengason MM2/MMM2 Pollucite[6][4].msa
#FORMAT      : EMSA/MAS Spectral Data File
#VERSION     : 1.0
#TITLE       : MMM2 Pollucite[6][all]
#DATE        : 29-SEP-2025
#TIME        : 00:41
#OWNER       : Unknown
#NPOINTS     : 4096
#NCOLUMNS    : 1
#XUNITS      : eV
#YUNITS      : counts
#DATATYPE    : Y
#XPERCHAN    : 9.99778
#OFFSET      : 1.69135
#BEAMKV      : 15
#SIGNALTYPE  : EDS
#ELEVANGLE   : 35
#AZIMANGLE   : 0
#LIVETIME    : 240.333
#REALTIME    : 257.581
#PROBECUR    : 1.21186
#TAUWIND     : 0
#TDEADLYR    : 0
#TACTLYR     : 0.045
#TALWIND     : 0.025
#CHOFFSET    : 0.0
#XLABEL      : Energy (eV)
#YLABEL      : Counts
#XPOSITION   : -20.69154
#YPOSITION   : 3.85452
#ZPOSITION   : 34.11879
#EDSDET      : SD
##SPECIMEN   : MMM2 Pollucite[6][all]
##DET_HASH   : 12273538-fd48-a23f-0a19-f1e6fa85caef
##CALIB_HASH : 6abaa72c-aa41-8738-0be9-f592914732f3
##WORKING    : 15.0 mm
##DET_NAME   : EDAX All
##DET_MODE   : MediumLE
#SPECTRUM    :
15,
376,
15367,
11388,
86675,
6565,
4554,
7687,
5209,
5376,
9420,
25323,
46987,
23329,
4207,
3791,
4187,
3827,
3896,
3579,
3475,
3450,
3210,
3262,
3180,
2973,
2791,
3795,
2743,
2696,
9757,
19965,
2619,
16581,
4814,
5814,
2716,
2142,
3189,
1920,
2051,
1625,
1450,
1401,
1363,
1346,
1336,
1243,
1168,
1206,
1088,
1048,
1015,
1023,
968,
941,
861,
815,
800,
859,
756,
736,
705,
681,
637,
608,
571,
616,
533,
525,
531,
520,
509,
458,
433,
404,
370,
370,
358,
317,
352,
319,
292,
249,
254,
231,
218,
210,
164,
155,
150,
158,
148,
121,
124,
111,
80,
85,
78,
64,
52,
38,
34,
24,
25,
8,
4,
3,
0,
0,
0,
1,
0,
0,
0,
1,
0,
0,
3,
0,
0,
1,
0,
1,
0,
0,
0,
0,
0,
2,
0,
0,
0,
0,
0,
0,
0,
0,
0,
0,
1,
0,
0,
0,
0,
0,
0,
0,
0,
0,
0,
0,
0,
0,
0,
0,
0,
0,
0,
0,
0,
0,
0,
0,
0,
0,
0,
0,
0,
0,
0,
0,
0,
0,
0,
0,
0,
0,
0,
0,
0,
0,
0,
0,
0,
0,
0,
0,
0,
0,
0,
0,
0,
0,
0,
0,
0,
0,
0,
0,
0,
0,
0,
0,
0,
0,
0,
0,
0,
0,
0,
0,
0,
0,
0,
0,
0,
0,
0,
0,
0,
0,
0,
0,
0,
0,
0,
0,
0,
0,
0,
0,
0,
0,
0,
0,
0,
0,
0,
0,
0,
0,
0,
0,
0,
0,
0,
0,
0,
0,
0,
0,
0,
0,
0,
0,
0,
0,
0,
0,
0,
0,
0,
0,
0,
0,
0,
0,
0,
0,
0,
0,
0,
0,
0,
0,
0,
0,
0,
0,
0,
0,
0,
0,
0,
0,
0,
0,
0,
0,
0,
0,
0,
0,
#ENDOFDATA   :