File: N132962/Quantification/15 keV/Mengason MM2/MMM2 Manganotantalite[2][4].msa
#FORMAT      : EMSA/MAS Spectral Data File
#VERSION     : 1.0
#TITLE       : MMM2 Manganotantalite[2][all]
#DATE        : 28-SEP-2025
#TIME        : 22:53
#OWNER       : Unknown
#NPOINTS     : 4096
#NCOLUMNS    : 1
#XUNITS      : eV
#YUNITS      : counts
#DATATYPE    : Y
#XPERCHAN    : 9.99778
#OFFSET      : 1.69135
#BEAMKV      : 15
#SIGNALTYPE  : EDS
#ELEVANGLE   : 35
#AZIMANGLE   : 0
#LIVETIME    : 240.429
#REALTIME    : 259.89
#PROBECUR    : 1.2132
#TAUWIND     : 0
#TDEADLYR    : 0
#TACTLYR     : 0.045
#TALWIND     : 0.025
#CHOFFSET    : 0.0
#XLABEL      : Energy (eV)
#YLABEL      : Counts
#XPOSITION   : -22.41367
#YPOSITION   : -0.28555
#ZPOSITION   : 34.11879
#EDSDET      : SD
##SPECIMEN   : MMM2 Manganotantalite[2][all]
##DET_HASH   : 12273538-fd48-a23f-0a19-f1e6fa85caef
##CALIB_HASH : 6abaa72c-aa41-8738-0be9-f592914732f3
##WORKING    : 15.0 mm
##DET_NAME   : EDAX All
##DET_MODE   : MediumLE
#SPECTRUM    :
22,
1122,
19096,
8534,
35617,
10215,
7212,
8011,
8672,
11361,
12023,
10547,
126010,
29118,
11013,
14851,
23807,
7300,
5090,
5256,
4836,
4740,
4820,
4667,
4688,
4693,
4575,
4330,
4420,
4155,
4051,
3987,
4579,
3820,
3550,
3712,
3356,
3307,
3160,
3211,
3062,
3512,
17424,
4024,
2802,
3334,
5934,
3021,
2396,
2378,
2458,
2622,
2119,
2112,
2063,
1867,
1899,
2559,
10615,
3238,
1621,
1532,
1472,
1468,
1317,
1434,
2503,
3471,
1865,
2723,
1265,
1070,
941,
935,
846,
869,
804,
946,
1125,
718,
779,
692,
648,
576,
537,
507,
453,
489,
411,
401,
362,
354,
317,
290,
249,
268,
226,
203,
182,
153,
133,
122,
98,
69,
50,
41,
23,
3,
2,
8,
6,
3,
3,
2,
0,
0,
2,
3,
2,
1,
2,
3,
1,
0,
4,
3,
1,
1,
1,
1,
2,
1,
4,
3,
0,
1,
0,
0,
0,
1,
0,
0,
1,
2,
1,
0,
0,
0,
0,
0,
0,
0,
2,
1,
0,
0,
0,
1,
0,
0,
0,
0,
0,
0,
1,
0,
0,
0,
1,
0,
0,
0,
1,
0,
0,
0,
0,
0,
0,
0,
0,
0,
0,
0,
0,
0,
0,
0,
0,
0,
0,
0,
0,
0,
0,
0,
0,
0,
0,
0,
0,
0,
0,
0,
0,
0,
0,
0,
0,
0,
0,
0,
0,
0,
0,
0,
0,
0,
0,
0,
0,
0,
0,
0,
0,
0,
0,
0,
0,
0,
0,
0,
0,
0,
0,
0,
0,
0,
0,
0,
0,
0,
0,
0,
0,
0,
0,
0,
0,
0,
0,
0,
0,
0,
0,
0,
0,
0,
0,
0,
0,
0,
0,
0,
0,
0,
0,
0,
0,
0,
0,
0,
0,
0,
0,
0,
0,
0,
0,
0,
0,
0,
0,
0,
0,
0,
0,
0,
0,
0,
0,
0,
0,
0,
#ENDOFDATA   :