File: N132962/Quantification/15 keV/Mengason MM2/MMM2 Willemite[2][4].msa
#FORMAT      : EMSA/MAS Spectral Data File
#VERSION     : 1.0
#TITLE       : MMM2 Willemite[2][all]
#DATE        : 28-SEP-2025
#TIME        : 23:45
#OWNER       : Unknown
#NPOINTS     : 4096
#NCOLUMNS    : 1
#XUNITS      : eV
#YUNITS      : counts
#DATATYPE    : Y
#XPERCHAN    : 9.99778
#OFFSET      : 1.69135
#BEAMKV      : 15
#SIGNALTYPE  : EDS
#ELEVANGLE   : 35
#AZIMANGLE   : 0
#LIVETIME    : 240.065
#REALTIME    : 258.088
#PROBECUR    : 1.21079
#TAUWIND     : 0
#TDEADLYR    : 0
#TACTLYR     : 0.045
#TALWIND     : 0.025
#CHOFFSET    : 0.0
#XLABEL      : Energy (eV)
#YLABEL      : Counts
#XPOSITION   : -11.52868
#YPOSITION   : 2.26098
#ZPOSITION   : 34.11879
#EDSDET      : SD
##SPECIMEN   : MMM2 Willemite[2][all]
##DET_HASH   : 12273538-fd48-a23f-0a19-f1e6fa85caef
##CALIB_HASH : 6abaa72c-aa41-8738-0be9-f592914732f3
##WORKING    : 15.0 mm
##DET_NAME   : EDAX All
##DET_MODE   : MediumLE
#SPECTRUM    :
19,
327,
16564,
9676,
61387,
6670,
15108,
169025,
8161,
6235,
4601,
5827,
27650,
15010,
4149,
4045,
4134,
3767,
3800,
3857,
3750,
3328,
3358,
3136,
3011,
2922,
2748,
2778,
2669,
2458,
2433,
2298,
2141,
2056,
2076,
1944,
1904,
1798,
1771,
1726,
1662,
1740,
6425,
1897,
1406,
1431,
1823,
1471,
1229,
1250,
1135,
1108,
1037,
976,
964,
873,
891,
901,
834,
889,
913,
8277,
13213,
973,
686,
684,
625,
669,
2524,
1476,
511,
461,
450,
413,
459,
370,
352,
321,
345,
336,
281,
308,
280,
255,
217,
238,
185,
184,
187,
164,
151,
134,
114,
110,
106,
85,
93,
79,
78,
62,
45,
47,
32,
24,
17,
14,
6,
3,
1,
1,
0,
1,
0,
0,
1,
1,
2,
1,
0,
1,
0,
2,
1,
0,
2,
3,
1,
1,
1,
0,
3,
1,
0,
0,
0,
0,
0,
1,
0,
2,
1,
0,
1,
0,
0,
1,
2,
0,
0,
2,
0,
0,
0,
0,
0,
0,
0,
0,
0,
0,
0,
0,
0,
0,
0,
0,
0,
0,
0,
0,
0,
0,
0,
0,
0,
0,
0,
0,
0,
0,
0,
0,
0,
0,
0,
0,
0,
0,
0,
0,
0,
0,
0,
0,
0,
0,
0,
0,
0,
0,
0,
0,
0,
0,
0,
0,
0,
0,
0,
0,
0,
0,
0,
0,
0,
0,
0,
0,
0,
0,
0,
0,
0,
0,
0,
0,
0,
0,
0,
0,
0,
0,
0,
0,
0,
0,
0,
0,
0,
0,
0,
0,
0,
0,
0,
0,
0,
0,
0,
0,
0,
0,
0,
0,
0,
0,
0,
0,
0,
0,
0,
0,
0,
0,
0,
0,
0,
0,
0,
0,
0,
0,
0,
0,
0,
0,
0,
0,
0,
0,
0,
0,
0,
0,
0,
0,
0,
0,
0,
0,
0,
0,
0,
0,
#ENDOFDATA   :