File: N132962/Quantification/15 keV/Mengason MM2/MMM2 Stibnite[4][4].msa
#FORMAT      : EMSA/MAS Spectral Data File
#VERSION     : 1.0
#TITLE       : MMM2 Stibnite[4][all]
#DATE        : 28-SEP-2025
#TIME        : 23:36
#OWNER       : Unknown
#NPOINTS     : 4096
#NCOLUMNS    : 1
#XUNITS      : eV
#YUNITS      : counts
#DATATYPE    : Y
#XPERCHAN    : 9.99778
#OFFSET      : 1.69135
#BEAMKV      : 15
#SIGNALTYPE  : EDS
#ELEVANGLE   : 35
#AZIMANGLE   : 0
#LIVETIME    : 240.1969
#REALTIME    : 260.394
#PROBECUR    : 1.21079
#TAUWIND     : 0
#TDEADLYR    : 0
#TACTLYR     : 0.045
#TALWIND     : 0.025
#CHOFFSET    : 0.0
#XLABEL      : Energy (eV)
#YLABEL      : Counts
#XPOSITION   : -14.44673
#YPOSITION   : 2.20352
#ZPOSITION   : 34.11879
#EDSDET      : SD
##SPECIMEN   : MMM2 Stibnite[4][all]
##DET_HASH   : 12273538-fd48-a23f-0a19-f1e6fa85caef
##CALIB_HASH : 6abaa72c-aa41-8738-0be9-f592914732f3
##WORKING    : 15.0 mm
##DET_NAME   : EDAX All
##DET_MODE   : MediumLE
#SPECTRUM    :
26,
2771,
19517,
23925,
10830,
7444,
6320,
5885,
6780,
7552,
8020,
8272,
8655,
9567,
7625,
8187,
55056,
42712,
11413,
5650,
5519,
5081,
5448,
8180,
5423,
14376,
81179,
21761,
29507,
13621,
6212,
8442,
3622,
5544,
3058,
2874,
2915,
2803,
2760,
2702,
2768,
2611,
2635,
2569,
2488,
2433,
2439,
2134,
2178,
2049,
2002,
1942,
1889,
1923,
1788,
1713,
1685,
1647,
1548,
1569,
1462,
1340,
1305,
1303,
1221,
1213,
1199,
1087,
1133,
1085,
1029,
979,
900,
908,
828,
849,
798,
741,
712,
676,
606,
586,
586,
521,
533,
492,
422,
397,
422,
367,
331,
319,
286,
286,
246,
253,
213,
154,
164,
133,
121,
97,
84,
72,
47,
27,
19,
12,
2,
4,
2,
2,
3,
0,
3,
3,
3,
1,
4,
4,
3,
2,
2,
1,
1,
0,
2,
1,
1,
0,
0,
2,
1,
0,
0,
0,
0,
0,
0,
0,
0,
1,
0,
1,
0,
0,
1,
2,
0,
0,
0,
0,
0,
0,
0,
0,
0,
0,
0,
0,
0,
0,
0,
0,
0,
0,
0,
0,
0,
0,
0,
0,
0,
1,
0,
0,
0,
0,
0,
0,
0,
0,
0,
0,
0,
0,
0,
0,
0,
0,
0,
0,
0,
0,
0,
0,
0,
0,
0,
0,
0,
0,
0,
0,
0,
0,
0,
0,
0,
0,
0,
0,
0,
0,
0,
0,
0,
0,
0,
0,
0,
0,
0,
0,
0,
0,
0,
0,
0,
0,
0,
0,
0,
0,
0,
0,
0,
0,
0,
0,
0,
0,
0,
0,
0,
0,
0,
0,
0,
0,
0,
0,
0,
0,
0,
0,
0,
0,
0,
0,
0,
0,
0,
0,
0,
0,
0,
0,
0,
0,
0,
0,
0,
0,
0,
0,
0,
0,
0,
0,
0,
0,
0,
0,
0,
0,
0,
0,
0,
0,
0,
0,
0,
0,
#ENDOFDATA   :