File: N132962/Quantification/15 keV/Mengason MM2/MMM2 Wollastonite[5][4].msa
#FORMAT      : EMSA/MAS Spectral Data File
#VERSION     : 1.0
#TITLE       : MMM2 Wollastonite[5][all]
#DATE        : 29-SEP-2025
#TIME        : 00:09
#OWNER       : Unknown
#NPOINTS     : 4096
#NCOLUMNS    : 1
#XUNITS      : eV
#YUNITS      : counts
#DATATYPE    : Y
#XPERCHAN    : 9.99778
#OFFSET      : 1.69135
#BEAMKV      : 15
#SIGNALTYPE  : EDS
#ELEVANGLE   : 35
#AZIMANGLE   : 0
#LIVETIME    : 240.434
#REALTIME    : 255.138
#PROBECUR    : 1.21151
#TAUWIND     : 0
#TDEADLYR    : 0
#TACTLYR     : 0.045
#TALWIND     : 0.025
#CHOFFSET    : 0.0
#XLABEL      : Energy (eV)
#YLABEL      : Counts
#XPOSITION   : -12.46511
#YPOSITION   : 4.58559
#ZPOSITION   : 34.11879
#EDSDET      : SD
##SPECIMEN   : MMM2 Wollastonite[5][all]
##DET_HASH   : 12273538-fd48-a23f-0a19-f1e6fa85caef
##CALIB_HASH : 6abaa72c-aa41-8738-0be9-f592914732f3
##WORKING    : 15.0 mm
##DET_NAME   : EDAX All
##DET_MODE   : MediumLE
#SPECTRUM    :
25,
242,
20320,
4996,
36334,
2902,
3615,
4247,
4789,
4985,
5443,
5825,
61347,
28890,
4406,
3188,
3391,
3030,
2862,
2745,
2668,
2574,
2482,
2503,
2192,
3048,
61856,
20568,
4354,
10535,
1589,
1451,
1388,
1432,
1327,
1258,
1199,
1196,
1235,
1306,
1005,
1059,
979,
917,
907,
908,
887,
808,
824,
711,
690,
699,
706,
716,
632,
608,
565,
467,
508,
518,
493,
416,
423,
396,
425,
387,
360,
360,
350,
308,
317,
303,
253,
291,
239,
236,
217,
232,
208,
188,
200,
179,
147,
148,
150,
151,
106,
100,
98,
94,
91,
84,
83,
56,
70,
64,
54,
48,
39,
43,
20,
15,
19,
21,
9,
5,
4,
0,
1,
1,
0,
0,
0,
2,
2,
0,
1,
0,
0,
0,
1,
0,
0,
0,
0,
0,
0,
0,
0,
0,
0,
0,
0,
0,
0,
0,
0,
0,
0,
0,
0,
0,
0,
0,
0,
0,
0,
0,
0,
0,
0,
0,
0,
0,
0,
0,
0,
0,
0,
0,
0,
0,
0,
0,
0,
0,
0,
0,
0,
0,
0,
0,
0,
0,
0,
0,
0,
0,
0,
0,
0,
0,
0,
0,
0,
0,
0,
0,
0,
0,
0,
0,
0,
0,
0,
0,
0,
0,
0,
0,
0,
0,
0,
0,
0,
0,
0,
0,
0,
0,
0,
0,
0,
0,
0,
0,
0,
0,
0,
0,
0,
0,
0,
0,
0,
0,
0,
0,
0,
0,
0,
0,
0,
0,
0,
0,
0,
0,
0,
0,
0,
0,
0,
0,
0,
0,
0,
0,
0,
0,
0,
0,
0,
0,
0,
0,
0,
0,
0,
0,
0,
0,
0,
0,
0,
0,
0,
0,
0,
0,
0,
0,
0,
0,
0,
0,
0,
0,
0,
0,
0,
0,
0,
0,
0,
0,
0,
0,
0,
0,
0,
0,
0,
0,
#ENDOFDATA   :