File: N132962/Quantification/15 keV/Mengason MM2/MMM2 Tugtupite[3][4].msa
#FORMAT      : EMSA/MAS Spectral Data File
#VERSION     : 1.0
#TITLE       : MMM2 Tugtupite[3][all]
#DATE        : 29-SEP-2025
#TIME        : 00:58
#OWNER       : Unknown
#NPOINTS     : 4096
#NCOLUMNS    : 1
#XUNITS      : eV
#YUNITS      : counts
#DATATYPE    : Y
#XPERCHAN    : 9.99778
#OFFSET      : 1.69135
#BEAMKV      : 15
#SIGNALTYPE  : EDS
#ELEVANGLE   : 35
#AZIMANGLE   : 0
#LIVETIME    : 240.421
#REALTIME    : 257.259
#PROBECUR    : 1.21247
#TAUWIND     : 0
#TDEADLYR    : 0
#TACTLYR     : 0.045
#TALWIND     : 0.025
#CHOFFSET    : 0.0
#XLABEL      : Energy (eV)
#YLABEL      : Counts
#XPOSITION   : -17.31174
#YPOSITION   : 6.71624
#ZPOSITION   : 34.11879
#EDSDET      : SD
##SPECIMEN   : MMM2 Tugtupite[3][all]
##DET_HASH   : 12273538-fd48-a23f-0a19-f1e6fa85caef
##CALIB_HASH : 6abaa72c-aa41-8738-0be9-f592914732f3
##WORKING    : 15.0 mm
##DET_NAME   : EDAX All
##DET_MODE   : MediumLE
#SPECTRUM    :
27,
305,
11649,
8445,
72845,
3159,
4750,
36686,
10451,
3967,
6950,
20017,
54949,
25754,
2639,
2590,
2926,
2376,
4877,
25418,
5323,
1964,
1915,
1815,
1737,
1798,
1612,
1538,
1399,
1355,
1290,
1349,
1204,
1122,
1048,
1029,
996,
915,
960,
929,
885,
858,
797,
749,
750,
740,
687,
649,
593,
597,
542,
512,
547,
537,
481,
506,
466,
400,
396,
367,
336,
339,
330,
300,
320,
296,
276,
284,
249,
258,
248,
216,
196,
184,
192,
190,
171,
171,
144,
141,
127,
119,
127,
90,
112,
108,
92,
69,
68,
81,
70,
64,
60,
37,
51,
33,
43,
29,
29,
28,
19,
7,
12,
8,
12,
4,
4,
0,
0,
0,
0,
0,
0,
0,
0,
0,
0,
0,
0,
0,
0,
0,
0,
0,
0,
0,
0,
0,
0,
0,
0,
0,
0,
0,
0,
1,
0,
0,
0,
0,
0,
0,
0,
0,
0,
0,
0,
0,
0,
0,
0,
0,
0,
0,
0,
0,
0,
0,
0,
0,
0,
0,
0,
0,
0,
0,
0,
0,
0,
0,
0,
0,
0,
0,
0,
0,
0,
0,
0,
0,
0,
0,
0,
0,
0,
0,
0,
0,
0,
0,
0,
0,
0,
0,
0,
0,
0,
0,
0,
0,
0,
0,
0,
0,
0,
0,
0,
0,
0,
0,
0,
0,
0,
0,
0,
0,
0,
0,
0,
0,
0,
0,
0,
0,
0,
0,
0,
0,
0,
0,
0,
0,
0,
0,
0,
0,
0,
0,
0,
0,
0,
0,
0,
0,
0,
0,
0,
0,
0,
0,
0,
0,
0,
0,
0,
0,
0,
0,
0,
0,
0,
0,
0,
0,
0,
0,
0,
0,
0,
0,
0,
0,
0,
0,
0,
0,
0,
0,
0,
0,
0,
0,
0,
0,
0,
0,
0,
0,
0,
0,
0,
0,
0,
0,
#ENDOFDATA   :