File: N132962/Quantification/15 keV/Mengason MM2/MMM2 Rhodonite[1][4].msa
#FORMAT      : EMSA/MAS Spectral Data File
#VERSION     : 1.0
#TITLE       : MMM2 Rhodonite[1][all]
#DATE        : 28-SEP-2025
#TIME        : 23:23
#OWNER       : Unknown
#NPOINTS     : 4096
#NCOLUMNS    : 1
#XUNITS      : eV
#YUNITS      : counts
#DATATYPE    : Y
#XPERCHAN    : 9.99778
#OFFSET      : 1.69135
#BEAMKV      : 15
#SIGNALTYPE  : EDS
#ELEVANGLE   : 35
#AZIMANGLE   : 0
#LIVETIME    : 240.254
#REALTIME    : 256.109
#PROBECUR    : 1.21079
#TAUWIND     : 0
#TDEADLYR    : 0
#TACTLYR     : 0.045
#TALWIND     : 0.025
#CHOFFSET    : 0.0
#XLABEL      : Energy (eV)
#YLABEL      : Counts
#XPOSITION   : -16.7332
#YPOSITION   : 1.80929
#ZPOSITION   : 34.11879
#EDSDET      : SD
##SPECIMEN   : MMM2 Rhodonite[1][all]
##DET_HASH   : 12273538-fd48-a23f-0a19-f1e6fa85caef
##CALIB_HASH : 6abaa72c-aa41-8738-0be9-f592914732f3
##WORKING    : 15.0 mm
##DET_NAME   : EDAX All
##DET_MODE   : MediumLE
#SPECTRUM    :
16,
280,
14794,
10493,
85912,
8682,
3212,
3824,
4471,
12254,
5016,
5689,
52250,
25552,
3578,
3363,
3917,
3360,
3113,
3076,
2779,
2748,
2709,
2540,
2505,
2526,
8162,
4029,
2208,
2892,
1987,
1808,
1706,
1623,
1529,
1560,
1428,
1425,
1352,
1412,
1301,
2327,
40197,
4319,
1069,
2046,
7384,
2371,
875,
822,
1049,
903,
751,
728,
679,
673,
613,
650,
621,
554,
549,
539,
550,
495,
442,
414,
399,
419,
441,
371,
366,
318,
347,
270,
286,
295,
241,
261,
238,
218,
213,
218,
178,
165,
177,
148,
146,
126,
128,
121,
103,
78,
95,
81,
81,
65,
58,
41,
51,
48,
27,
33,
24,
16,
12,
9,
4,
1,
1,
0,
0,
1,
0,
0,
0,
0,
2,
0,
0,
2,
1,
0,
0,
0,
0,
0,
0,
2,
0,
0,
0,
0,
0,
0,
0,
0,
0,
0,
0,
0,
0,
0,
0,
0,
1,
0,
0,
0,
0,
0,
0,
0,
0,
0,
0,
0,
0,
0,
0,
0,
0,
0,
0,
0,
0,
0,
0,
0,
0,
0,
0,
0,
0,
0,
0,
0,
0,
0,
0,
0,
0,
0,
0,
0,
0,
0,
0,
0,
0,
0,
0,
0,
0,
0,
0,
0,
0,
0,
0,
0,
0,
0,
0,
0,
0,
0,
0,
0,
0,
0,
0,
0,
0,
0,
0,
0,
0,
0,
0,
0,
0,
0,
0,
0,
0,
0,
0,
0,
0,
0,
0,
0,
0,
0,
0,
0,
0,
0,
0,
0,
0,
0,
0,
0,
0,
0,
0,
0,
0,
0,
0,
0,
0,
0,
0,
0,
0,
0,
0,
0,
0,
0,
0,
0,
0,
0,
0,
0,
0,
0,
0,
0,
0,
0,
0,
0,
0,
0,
0,
0,
0,
0,
0,
0,
0,
0,
1,
0,
0,
0,
0,
0,
0,
0,
#ENDOFDATA   :