File: N132962/Quantification/15 keV/Mengason MM2/MMM2 Scheelite[1][4].msa
#FORMAT      : EMSA/MAS Spectral Data File
#VERSION     : 1.0
#TITLE       : MMM2 Scheelite[1][all]
#DATE        : 29-SEP-2025
#TIME        : 00:25
#OWNER       : Unknown
#NPOINTS     : 4096
#NCOLUMNS    : 1
#XUNITS      : eV
#YUNITS      : counts
#DATATYPE    : Y
#XPERCHAN    : 9.99778
#OFFSET      : 1.69135
#BEAMKV      : 15
#SIGNALTYPE  : EDS
#ELEVANGLE   : 35
#AZIMANGLE   : 0
#LIVETIME    : 240.243
#REALTIME    : 260.582
#PROBECUR    : 1.21186
#TAUWIND     : 0
#TDEADLYR    : 0
#TACTLYR     : 0.045
#TALWIND     : 0.025
#CHOFFSET    : 0.0
#XLABEL      : Energy (eV)
#YLABEL      : Counts
#XPOSITION   : -17.55385
#YPOSITION   : 4.53779
#ZPOSITION   : 34.11879
#EDSDET      : SD
##SPECIMEN   : MMM2 Scheelite[1][all]
##DET_HASH   : 12273538-fd48-a23f-0a19-f1e6fa85caef
##CALIB_HASH : 6abaa72c-aa41-8738-0be9-f592914732f3
##WORKING    : 15.0 mm
##DET_NAME   : EDAX All
##DET_MODE   : MediumLE
#SPECTRUM    :
24,
734,
23662,
6811,
28458,
6666,
7852,
8412,
9282,
9928,
22428,
10336,
21252,
173279,
7725,
6829,
5974,
6008,
5102,
4972,
5147,
4832,
4831,
4827,
4731,
5057,
30210,
12750,
5528,
7936,
4056,
4029,
3860,
3688,
3617,
3543,
3475,
3293,
3257,
3288,
3092,
2908,
2914,
2766,
2656,
2660,
2717,
2550,
2403,
2260,
2276,
2184,
2354,
2476,
1998,
1886,
1817,
1815,
1765,
3400,
11258,
2312,
1574,
1514,
1365,
1329,
1262,
1334,
1754,
3729,
1987,
2847,
1350,
1039,
947,
865,
892,
826,
782,
769,
921,
953,
637,
711,
598,
522,
527,
472,
448,
381,
411,
370,
336,
291,
278,
252,
240,
219,
162,
160,
156,
104,
87,
87,
60,
58,
29,
12,
5,
4,
3,
2,
1,
2,
1,
2,
0,
1,
3,
2,
3,
2,
3,
0,
1,
0,
0,
1,
2,
1,
2,
0,
2,
0,
0,
0,
0,
0,
0,
1,
0,
2,
1,
0,
0,
0,
0,
0,
1,
0,
0,
0,
0,
1,
0,
0,
0,
0,
0,
0,
0,
0,
0,
0,
0,
0,
0,
0,
0,
0,
0,
0,
0,
0,
0,
0,
0,
0,
0,
0,
0,
0,
0,
0,
0,
0,
0,
0,
0,
0,
0,
0,
0,
0,
0,
0,
0,
0,
0,
0,
0,
0,
0,
0,
0,
0,
0,
0,
0,
0,
0,
0,
0,
0,
0,
0,
0,
0,
0,
0,
0,
0,
0,
0,
0,
0,
0,
0,
0,
0,
0,
0,
0,
0,
0,
0,
0,
0,
0,
0,
0,
0,
0,
0,
0,
0,
0,
0,
0,
0,
0,
0,
0,
0,
0,
0,
0,
0,
0,
0,
0,
0,
0,
0,
0,
0,
0,
0,
0,
0,
0,
0,
0,
0,
0,
0,
0,
0,
0,
0,
0,
0,
0,
0,
0,
0,
0,
0,
0,
0,
0,
0,
0,
0,
#ENDOFDATA   :