File: N132962/Quantification/15 keV/Mengason MM2/MMM2 SrTiO3[1][4].msa
#FORMAT      : EMSA/MAS Spectral Data File
#VERSION     : 1.0
#TITLE       : MMM2 SrTiO3[1][all]
#DATE        : 29-SEP-2025
#TIME        : 00:14
#OWNER       : Unknown
#NPOINTS     : 4096
#NCOLUMNS    : 1
#XUNITS      : eV
#YUNITS      : counts
#DATATYPE    : Y
#XPERCHAN    : 9.99778
#OFFSET      : 1.69135
#BEAMKV      : 15
#SIGNALTYPE  : EDS
#ELEVANGLE   : 35
#AZIMANGLE   : 0
#LIVETIME    : 240.084
#REALTIME    : 256.493
#PROBECUR    : 1.21151
#TAUWIND     : 0
#TDEADLYR    : 0
#TACTLYR     : 0.045
#TALWIND     : 0.025
#CHOFFSET    : 0.0
#XLABEL      : Energy (eV)
#YLABEL      : Counts
#XPOSITION   : -15.22531
#YPOSITION   : 4.52411
#ZPOSITION   : 34.11879
#EDSDET      : SD
##SPECIMEN   : MMM2 SrTiO3[1][all]
##D2STDCMP   : SrTiO3,(O:26.1592),(Ti:26.0877),(Sr:47.7532)
##DET_HASH   : 12273538-fd48-a23f-0a19-f1e6fa85caef
##CALIB_HASH : 6abaa72c-aa41-8738-0be9-f592914732f3
##WORKING    : 15.0 mm
##DET_NAME   : EDAX All
##DET_MODE   : MediumLE
#SPECTRUM    :
29,
683,
15940,
13632,
23605,
4279,
5605,
6048,
6859,
7300,
7689,
11735,
11620,
201771,
16352,
4170,
4407,
3862,
3842,
3866,
4241,
3676,
3588,
3444,
3468,
3415,
3487,
3185,
2974,
2823,
2783,
3314,
54707,
7941,
2741,
8959,
3271,
2065,
1993,
2019,
1817,
1812,
1748,
1727,
1676,
1761,
1619,
1509,
1468,
1400,
1390,
1323,
1220,
1182,
1175,
1100,
1058,
996,
975,
987,
908,
883,
883,
858,
793,
748,
738,
692,
698,
653,
646,
596,
540,
551,
502,
470,
457,
448,
429,
399,
379,
363,
339,
328,
305,
262,
293,
293,
214,
230,
219,
165,
182,
135,
145,
134,
110,
105,
94,
70,
61,
64,
47,
33,
29,
20,
10,
2,
2,
0,
2,
1,
0,
2,
1,
0,
0,
1,
0,
2,
1,
0,
1,
0,
1,
0,
0,
0,
1,
0,
0,
1,
0,
0,
0,
0,
0,
0,
0,
0,
0,
1,
0,
0,
0,
0,
0,
1,
0,
0,
0,
0,
0,
0,
0,
1,
0,
0,
0,
0,
0,
0,
0,
0,
0,
0,
0,
1,
0,
0,
0,
0,
0,
0,
0,
0,
0,
0,
0,
0,
0,
0,
0,
0,
0,
0,
0,
0,
0,
0,
0,
0,
0,
0,
0,
0,
0,
0,
0,
0,
0,
0,
0,
0,
0,
0,
0,
0,
0,
0,
0,
0,
0,
0,
0,
0,
0,
0,
0,
0,
0,
0,
0,
0,
0,
0,
0,
0,
0,
0,
0,
0,
0,
0,
0,
0,
0,
0,
0,
0,
0,
0,
0,
0,
0,
0,
0,
0,
0,
0,
0,
0,
0,
0,
0,
0,
0,
0,
0,
0,
0,
0,
0,
0,
0,
0,
0,
0,
0,
0,
0,
0,
0,
0,
0,
0,
0,
0,
0,
0,
0,
0,
0,
0,
0,
0,
0,
0,
0,
0,
0,
0,
0,
0,
#ENDOFDATA   :