File: N132962/Quantification/15 keV/Mengason MM2/MMM2 Scheelite[7][4].msa
#FORMAT      : EMSA/MAS Spectral Data File
#VERSION     : 1.0
#TITLE       : MMM2 Scheelite[7][all]
#DATE        : 29-SEP-2025
#TIME        : 00:32
#OWNER       : Unknown
#NPOINTS     : 4096
#NCOLUMNS    : 1
#XUNITS      : eV
#YUNITS      : counts
#DATATYPE    : Y
#XPERCHAN    : 9.99778
#OFFSET      : 1.69135
#BEAMKV      : 15
#SIGNALTYPE  : EDS
#ELEVANGLE   : 35
#AZIMANGLE   : 0
#LIVETIME    : 240.247
#REALTIME    : 260.587
#PROBECUR    : 1.21186
#TAUWIND     : 0
#TDEADLYR    : 0
#TACTLYR     : 0.045
#TALWIND     : 0.025
#CHOFFSET    : 0.0
#XLABEL      : Energy (eV)
#YLABEL      : Counts
#XPOSITION   : -17.48746
#YPOSITION   : 4.44723
#ZPOSITION   : 34.11879
#EDSDET      : SD
##SPECIMEN   : MMM2 Scheelite[7][all]
##DET_HASH   : 12273538-fd48-a23f-0a19-f1e6fa85caef
##CALIB_HASH : 6abaa72c-aa41-8738-0be9-f592914732f3
##WORKING    : 15.0 mm
##DET_NAME   : EDAX All
##DET_MODE   : MediumLE
#SPECTRUM    :
23,
711,
23469,
6665,
28485,
6742,
7847,
8412,
9332,
9986,
22223,
10564,
21222,
174159,
7865,
6671,
6180,
6038,
5293,
4981,
5126,
4821,
4774,
4844,
4701,
4935,
30028,
12729,
5521,
7996,
3946,
3864,
3755,
3581,
3577,
3548,
3338,
3299,
3266,
3298,
3157,
2940,
2890,
2831,
2693,
2675,
2705,
2408,
2389,
2361,
2284,
2141,
2280,
2487,
2006,
1887,
1868,
1782,
1769,
3416,
11229,
2349,
1582,
1496,
1451,
1319,
1297,
1338,
1883,
3755,
1954,
2847,
1345,
1048,
928,
893,
848,
737,
784,
731,
869,
911,
740,
720,
629,
531,
538,
499,
467,
405,
387,
360,
327,
302,
238,
255,
218,
198,
154,
163,
106,
115,
106,
81,
64,
48,
35,
7,
11,
3,
3,
3,
3,
4,
1,
3,
4,
0,
3,
2,
0,
2,
2,
1,
3,
3,
0,
1,
1,
0,
3,
3,
0,
1,
0,
1,
2,
1,
2,
3,
0,
1,
1,
1,
1,
0,
0,
1,
1,
1,
1,
0,
0,
0,
0,
1,
0,
2,
0,
0,
0,
0,
0,
1,
0,
0,
0,
0,
0,
0,
0,
0,
0,
0,
0,
0,
0,
0,
0,
0,
0,
0,
0,
0,
0,
0,
0,
0,
0,
0,
0,
0,
0,
0,
0,
0,
0,
0,
0,
0,
0,
0,
0,
0,
0,
0,
0,
0,
0,
0,
0,
0,
0,
0,
0,
0,
0,
0,
0,
0,
0,
0,
0,
0,
0,
0,
0,
0,
0,
0,
0,
0,
0,
0,
0,
0,
0,
0,
0,
0,
0,
0,
0,
0,
0,
0,
0,
0,
0,
0,
0,
0,
0,
0,
0,
0,
0,
0,
0,
0,
0,
0,
0,
0,
0,
0,
0,
0,
0,
0,
0,
0,
0,
0,
0,
0,
0,
0,
0,
0,
0,
0,
0,
0,
0,
0,
0,
0,
0,
0,
0,
0,
0,
0,
#ENDOFDATA   :