File: N132962/Quantification/15 keV/Mengason MM2/MMM2 Pentlandite[4][4].msa
#FORMAT      : EMSA/MAS Spectral Data File
#VERSION     : 1.0
#TITLE       : MMM2 Pentlandite[4][all]
#DATE        : 28-SEP-2025
#TIME        : 21:42
#OWNER       : Unknown
#NPOINTS     : 4096
#NCOLUMNS    : 1
#XUNITS      : eV
#YUNITS      : counts
#DATATYPE    : Y
#XPERCHAN    : 9.99778
#OFFSET      : 1.69135
#BEAMKV      : 15
#SIGNALTYPE  : EDS
#ELEVANGLE   : 35
#AZIMANGLE   : 0
#LIVETIME    : 240.257
#REALTIME    : 257.84
#PROBECUR    : 1.21217
#TAUWIND     : 0
#TDEADLYR    : 0
#TACTLYR     : 0.045
#TALWIND     : 0.025
#CHOFFSET    : 0.0
#XLABEL      : Energy (eV)
#YLABEL      : Counts
#XPOSITION   : -15.84533
#YPOSITION   : -2.33825
#ZPOSITION   : 34.11879
#EDSDET      : SD
##SPECIMEN   : MMM2 Pentlandite[4][all]
##DET_HASH   : 12273538-fd48-a23f-0a19-f1e6fa85caef
##CALIB_HASH : 6abaa72c-aa41-8738-0be9-f592914732f3
##WORKING    : 15.0 mm
##DET_NAME   : EDAX All
##DET_MODE   : MediumLE
#SPECTRUM    :
29,
623,
15525,
4737,
16515,
67439,
88070,
4731,
4681,
5344,
5728,
6003,
6288,
6422,
5621,
5894,
56240,
43529,
9691,
3744,
3815,
3788,
3705,
3584,
3422,
3183,
3201,
2993,
2899,
2767,
2719,
2655,
2581,
2764,
2427,
2305,
2260,
2193,
1987,
2054,
1869,
1828,
1761,
1680,
1803,
9696,
27915,
1775,
1496,
1763,
4491,
2850,
1528,
17367,
8697,
1118,
1054,
991,
1320,
3824,
1138,
767,
868,
737,
723,
719,
680,
680,
652,
655,
647,
576,
556,
540,
487,
453,
458,
418,
406,
372,
365,
306,
321,
306,
266,
265,
235,
236,
223,
211,
198,
182,
160,
141,
143,
133,
114,
102,
90,
77,
57,
56,
33,
28,
22,
22,
7,
2,
1,
2,
1,
1,
4,
0,
1,
1,
3,
3,
0,
1,
0,
0,
3,
1,
1,
0,
0,
0,
3,
1,
0,
0,
0,
1,
2,
2,
0,
2,
0,
0,
0,
1,
0,
0,
0,
0,
0,
0,
0,
0,
0,
0,
0,
0,
0,
0,
0,
0,
0,
0,
0,
1,
0,
0,
0,
0,
0,
0,
0,
0,
0,
0,
0,
0,
0,
0,
0,
0,
0,
0,
0,
0,
0,
0,
0,
0,
0,
0,
0,
0,
0,
0,
0,
0,
0,
0,
0,
0,
0,
0,
0,
0,
0,
0,
0,
0,
0,
0,
0,
0,
0,
0,
0,
0,
0,
0,
0,
0,
0,
0,
0,
0,
0,
0,
0,
0,
0,
0,
0,
0,
0,
0,
0,
0,
0,
0,
0,
0,
0,
0,
0,
0,
0,
0,
0,
0,
0,
0,
0,
0,
0,
0,
0,
0,
0,
0,
0,
0,
0,
0,
0,
0,
0,
0,
0,
0,
0,
0,
0,
0,
0,
0,
0,
0,
0,
0,
0,
0,
0,
0,
0,
0,
0,
0,
0,
0,
0,
0,
0,
0,
0,
0,
0,
0,
#ENDOFDATA   :