File: N132962/Quantification/15 keV/Mengason MM2/MMM2 Stibnite[2][4].msa
#FORMAT      : EMSA/MAS Spectral Data File
#VERSION     : 1.0
#TITLE       : MMM2 Stibnite[2][all]
#DATE        : 28-SEP-2025
#TIME        : 23:34
#OWNER       : Unknown
#NPOINTS     : 4096
#NCOLUMNS    : 1
#XUNITS      : eV
#YUNITS      : counts
#DATATYPE    : Y
#XPERCHAN    : 9.99778
#OFFSET      : 1.69135
#BEAMKV      : 15
#SIGNALTYPE  : EDS
#ELEVANGLE   : 35
#AZIMANGLE   : 0
#LIVETIME    : 240.142
#REALTIME    : 260.322
#PROBECUR    : 1.21079
#TAUWIND     : 0
#TDEADLYR    : 0
#TACTLYR     : 0.045
#TALWIND     : 0.025
#CHOFFSET    : 0.0
#XLABEL      : Energy (eV)
#YLABEL      : Counts
#XPOSITION   : -14.48491
#YPOSITION   : 2.25999
#ZPOSITION   : 34.11879
#EDSDET      : SD
##SPECIMEN   : MMM2 Stibnite[2][all]
##DET_HASH   : 12273538-fd48-a23f-0a19-f1e6fa85caef
##CALIB_HASH : 6abaa72c-aa41-8738-0be9-f592914732f3
##WORKING    : 15.0 mm
##DET_NAME   : EDAX All
##DET_MODE   : MediumLE
#SPECTRUM    :
25,
2728,
19482,
23627,
10851,
7346,
6339,
5981,
6781,
7471,
7997,
8466,
8565,
9422,
7851,
8254,
55021,
42725,
11226,
5457,
5376,
5333,
5400,
8177,
5400,
14392,
81124,
21953,
29532,
13639,
6080,
8498,
3755,
5388,
3018,
2844,
2942,
2869,
2709,
2760,
2630,
2664,
2663,
2535,
2431,
2364,
2398,
2203,
2193,
2071,
2044,
1960,
1991,
1902,
1817,
1762,
1673,
1609,
1574,
1545,
1429,
1371,
1323,
1298,
1205,
1181,
1159,
1123,
1038,
1016,
1065,
948,
938,
898,
827,
819,
735,
721,
755,
664,
627,
578,
567,
558,
495,
492,
483,
378,
392,
395,
336,
309,
306,
277,
236,
237,
213,
175,
154,
139,
111,
121,
68,
70,
47,
40,
28,
16,
4,
2,
6,
2,
3,
2,
3,
1,
2,
2,
3,
0,
0,
3,
0,
4,
3,
2,
2,
1,
1,
2,
0,
0,
0,
0,
0,
0,
0,
0,
1,
3,
0,
0,
0,
0,
0,
0,
0,
0,
0,
0,
0,
0,
0,
0,
0,
0,
1,
0,
0,
0,
1,
0,
0,
0,
0,
0,
0,
0,
0,
0,
0,
0,
0,
1,
0,
0,
1,
0,
0,
0,
0,
0,
0,
0,
0,
1,
0,
0,
0,
0,
0,
0,
0,
0,
0,
0,
0,
0,
0,
0,
0,
0,
0,
0,
0,
0,
0,
0,
0,
0,
0,
0,
0,
0,
0,
0,
0,
0,
0,
0,
0,
0,
0,
0,
0,
0,
0,
0,
0,
0,
0,
0,
0,
0,
0,
0,
0,
0,
0,
0,
0,
0,
0,
0,
0,
0,
0,
0,
0,
0,
0,
0,
0,
0,
0,
0,
0,
0,
0,
0,
0,
0,
0,
0,
0,
0,
0,
0,
0,
0,
0,
0,
0,
0,
0,
0,
0,
0,
0,
0,
0,
0,
0,
0,
0,
0,
0,
0,
0,
0,
0,
0,
0,
0,
#ENDOFDATA   :