File: N132962/Quantification/15 keV/Mengason MM2/MMM2 Zircon[1][4].msa
#FORMAT      : EMSA/MAS Spectral Data File
#VERSION     : 1.0
#TITLE       : MMM2 Zircon[1][all]
#DATE        : 29-SEP-2025
#TIME        : 01:06
#OWNER       : Unknown
#NPOINTS     : 4096
#NCOLUMNS    : 1
#XUNITS      : eV
#YUNITS      : counts
#DATATYPE    : Y
#XPERCHAN    : 9.99778
#OFFSET      : 1.69135
#BEAMKV      : 15
#SIGNALTYPE  : EDS
#ELEVANGLE   : 35
#AZIMANGLE   : 0
#LIVETIME    : 240.266
#REALTIME    : 257.063
#PROBECUR    : 1.21248
#TAUWIND     : 0
#TDEADLYR    : 0
#TACTLYR     : 0.045
#TALWIND     : 0.025
#CHOFFSET    : 0.0
#XLABEL      : Energy (eV)
#YLABEL      : Counts
#XPOSITION   : -13.65469
#YPOSITION   : 7.00341
#ZPOSITION   : 34.11879
#EDSDET      : SD
##SPECIMEN   : MMM2 Zircon[1][all]
##D2STDCMP   : Zircon,(O:34.9128),(Si:15.3216),(Zr:49.7657),8.0
##DET_HASH   : 12273538-fd48-a23f-0a19-f1e6fa85caef
##CALIB_HASH : 6abaa72c-aa41-8738-0be9-f592914732f3
##WORKING    : 15.0 mm
##DET_NAME   : EDAX All
##DET_MODE   : MediumLE
#SPECTRUM    :
17,
1034,
18004,
6527,
36753,
4646,
5393,
6232,
6815,
7522,
7732,
8030,
48211,
30794,
26858,
93243,
11607,
3590,
4304,
3202,
3250,
3112,
3112,
3041,
2952,
3002,
2936,
2974,
2753,
2713,
2572,
2392,
2376,
2252,
2184,
2140,
2031,
1956,
2004,
1888,
1849,
1728,
1658,
1564,
1552,
1482,
1551,
1381,
1338,
1288,
1313,
1251,
1139,
1151,
1077,
1095,
1073,
981,
920,
883,
882,
853,
857,
782,
810,
713,
681,
706,
638,
554,
561,
560,
509,
503,
474,
469,
390,
387,
400,
404,
373,
316,
293,
252,
297,
258,
266,
239,
187,
207,
186,
179,
161,
114,
127,
102,
104,
97,
79,
79,
60,
42,
33,
31,
28,
16,
5,
3,
1,
1,
1,
2,
2,
1,
0,
0,
1,
0,
0,
1,
1,
1,
1,
0,
0,
0,
2,
0,
0,
1,
0,
1,
0,
0,
0,
0,
0,
0,
0,
0,
0,
0,
0,
0,
0,
0,
0,
0,
0,
0,
0,
0,
0,
2,
0,
0,
0,
0,
0,
0,
0,
0,
0,
0,
0,
0,
0,
0,
0,
0,
0,
0,
0,
0,
0,
0,
0,
0,
0,
0,
0,
0,
0,
0,
0,
0,
0,
0,
0,
0,
0,
0,
0,
0,
0,
0,
0,
0,
0,
0,
0,
0,
0,
0,
0,
0,
0,
0,
0,
0,
0,
0,
0,
0,
0,
0,
0,
0,
0,
0,
0,
0,
0,
0,
0,
0,
0,
0,
0,
0,
0,
0,
0,
0,
0,
0,
0,
0,
0,
1,
0,
0,
0,
0,
0,
0,
0,
0,
0,
0,
0,
0,
0,
0,
0,
0,
0,
0,
0,
0,
0,
0,
0,
0,
0,
0,
0,
0,
0,
0,
0,
0,
0,
0,
0,
0,
0,
0,
0,
0,
0,
0,
0,
0,
0,
0,
0,
0,
0,
0,
0,
0,
0,
0,
#ENDOFDATA   :