File: N132962/Quantification/15 keV/Mengason MM2/MMM2 Pyrite[6][4].msa
#FORMAT      : EMSA/MAS Spectral Data File
#VERSION     : 1.0
#TITLE       : MMM2 Pyrite[6][all]
#DATE        : 28-SEP-2025
#TIME        : 20:53
#OWNER       : Unknown
#NPOINTS     : 4096
#NCOLUMNS    : 1
#XUNITS      : eV
#YUNITS      : counts
#DATATYPE    : Y
#XPERCHAN    : 9.99778
#OFFSET      : 1.69135
#BEAMKV      : 15
#SIGNALTYPE  : EDS
#ELEVANGLE   : 35
#AZIMANGLE   : 0
#LIVETIME    : 240.179
#REALTIME    : 258.991
#PROBECUR    : 1.21333
#TAUWIND     : 0
#TDEADLYR    : 0
#TACTLYR     : 0.045
#TALWIND     : 0.025
#CHOFFSET    : 0.0
#XLABEL      : Energy (eV)
#YLABEL      : Counts
#XPOSITION   : -11.68033
#YPOSITION   : -4.30169
#ZPOSITION   : 34.11879
#EDSDET      : SD
##SPECIMEN   : MMM2 Pyrite[6][all]
##D2STDCMP   : Pyrite,(S:53.4528),(Fe:46.5472)
##DET_HASH   : 12273538-fd48-a23f-0a19-f1e6fa85caef
##CALIB_HASH : 6abaa72c-aa41-8738-0be9-f592914732f3
##WORKING    : 15.0 mm
##DET_NAME   : EDAX All
##DET_MODE   : MediumLE
#SPECTRUM    :
32,
997,
14158,
3768,
19091,
84454,
4826,
4855,
5310,
6031,
6363,
6511,
6597,
6600,
6094,
6305,
92218,
70471,
12759,
3292,
3223,
3385,
3149,
2906,
2862,
2818,
2654,
2670,
2494,
2418,
2349,
2286,
2277,
2846,
2091,
2038,
1958,
1910,
1817,
1783,
1645,
1673,
1561,
1558,
1590,
12933,
37152,
1756,
1320,
1393,
5400,
3289,
1009,
960,
963,
859,
917,
850,
829,
752,
776,
766,
813,
708,
679,
623,
598,
587,
544,
550,
505,
502,
446,
474,
427,
426,
365,
334,
330,
320,
297,
279,
278,
223,
239,
232,
214,
164,
167,
151,
150,
151,
141,
116,
126,
93,
86,
72,
71,
52,
50,
39,
27,
17,
21,
15,
5,
3,
2,
0,
2,
0,
0,
1,
4,
0,
0,
1,
1,
0,
0,
2,
0,
0,
2,
1,
0,
0,
0,
0,
0,
0,
0,
0,
0,
0,
1,
0,
0,
0,
0,
0,
1,
0,
0,
0,
0,
0,
0,
1,
0,
0,
0,
0,
0,
0,
0,
0,
0,
0,
0,
0,
0,
0,
0,
0,
0,
0,
0,
0,
0,
0,
0,
0,
0,
0,
0,
0,
0,
0,
0,
0,
0,
0,
0,
0,
0,
0,
0,
0,
0,
0,
0,
0,
0,
0,
0,
0,
0,
0,
0,
0,
0,
0,
0,
0,
0,
0,
0,
0,
0,
0,
0,
0,
0,
0,
0,
0,
0,
0,
0,
0,
0,
0,
0,
0,
0,
0,
0,
0,
0,
0,
0,
0,
0,
0,
0,
0,
0,
0,
0,
0,
0,
0,
0,
0,
0,
0,
0,
0,
0,
0,
0,
0,
0,
0,
0,
0,
0,
0,
0,
0,
0,
0,
0,
0,
0,
0,
0,
0,
0,
0,
0,
0,
0,
0,
0,
0,
0,
0,
0,
0,
0,
0,
0,
0,
0,
0,
0,
0,
0,
0,
0,
0,
#ENDOFDATA   :