File: N132962/Quantification/15 keV/Mengason MM2/MMM2 Pollucite[2][4].msa
#FORMAT      : EMSA/MAS Spectral Data File
#VERSION     : 1.0
#TITLE       : MMM2 Pollucite[2][all]
#DATE        : 29-SEP-2025
#TIME        : 00:36
#OWNER       : Unknown
#NPOINTS     : 4096
#NCOLUMNS    : 1
#XUNITS      : eV
#YUNITS      : counts
#DATATYPE    : Y
#XPERCHAN    : 9.99778
#OFFSET      : 1.69135
#BEAMKV      : 15
#SIGNALTYPE  : EDS
#ELEVANGLE   : 35
#AZIMANGLE   : 0
#LIVETIME    : 240.375
#REALTIME    : 257.6414
#PROBECUR    : 1.21186
#TAUWIND     : 0
#TDEADLYR    : 0
#TACTLYR     : 0.045
#TALWIND     : 0.025
#CHOFFSET    : 0.0
#XLABEL      : Energy (eV)
#YLABEL      : Counts
#XPOSITION   : -20.61774
#YPOSITION   : 3.81056
#ZPOSITION   : 34.11879
#EDSDET      : SD
##SPECIMEN   : MMM2 Pollucite[2][all]
##DET_HASH   : 12273538-fd48-a23f-0a19-f1e6fa85caef
##CALIB_HASH : 6abaa72c-aa41-8738-0be9-f592914732f3
##WORKING    : 15.0 mm
##DET_NAME   : EDAX All
##DET_MODE   : MediumLE
#SPECTRUM    :
22,
329,
15177,
11467,
86256,
6685,
4599,
7654,
5196,
5348,
9366,
25097,
46951,
23184,
4161,
3857,
4308,
3710,
3875,
3469,
3548,
3385,
3094,
3280,
3194,
2976,
2734,
3893,
2644,
2708,
9907,
20007,
2815,
16699,
4702,
5786,
2651,
2221,
3184,
1892,
2064,
1611,
1471,
1457,
1333,
1306,
1347,
1225,
1195,
1178,
1086,
1038,
1041,
997,
953,
885,
897,
875,
827,
807,
788,
768,
683,
711,
633,
620,
624,
574,
569,
503,
567,
469,
467,
440,
449,
423,
357,
384,
324,
322,
316,
279,
300,
274,
245,
244,
202,
205,
183,
181,
155,
156,
144,
118,
121,
106,
87,
80,
78,
62,
51,
48,
46,
36,
26,
15,
11,
2,
0,
1,
1,
0,
1,
1,
1,
1,
0,
0,
0,
2,
1,
2,
1,
1,
1,
0,
1,
0,
0,
0,
2,
0,
0,
0,
1,
0,
0,
0,
0,
0,
0,
0,
0,
0,
0,
0,
0,
0,
0,
0,
0,
0,
0,
0,
0,
0,
0,
0,
0,
0,
0,
0,
0,
0,
0,
0,
0,
0,
0,
0,
0,
0,
0,
0,
0,
0,
0,
0,
0,
0,
0,
0,
0,
0,
0,
0,
0,
0,
0,
0,
0,
0,
0,
0,
0,
0,
0,
0,
0,
0,
0,
0,
0,
0,
0,
0,
0,
0,
0,
0,
0,
0,
0,
0,
0,
0,
0,
0,
0,
0,
0,
0,
0,
0,
0,
0,
0,
0,
0,
0,
0,
0,
0,
0,
0,
0,
0,
0,
0,
0,
0,
0,
0,
0,
0,
0,
0,
0,
0,
0,
0,
0,
0,
0,
0,
0,
0,
0,
0,
0,
0,
0,
0,
0,
0,
0,
0,
0,
0,
0,
0,
0,
0,
0,
0,
0,
0,
0,
0,
0,
0,
0,
0,
0,
0,
0,
0,
0,
0,
0,
0,
0,
0,
0,
#ENDOFDATA   :