File: N132962/Quantification/15 keV/Mengason MM2/MMM2 Willemite[4][4].msa
#FORMAT      : EMSA/MAS Spectral Data File
#VERSION     : 1.0
#TITLE       : MMM2 Willemite[4][all]
#DATE        : 28-SEP-2025
#TIME        : 23:47
#OWNER       : Unknown
#NPOINTS     : 4096
#NCOLUMNS    : 1
#XUNITS      : eV
#YUNITS      : counts
#DATATYPE    : Y
#XPERCHAN    : 9.99778
#OFFSET      : 1.69135
#BEAMKV      : 15
#SIGNALTYPE  : EDS
#ELEVANGLE   : 35
#AZIMANGLE   : 0
#LIVETIME    : 240.25
#REALTIME    : 257.958
#PROBECUR    : 1.21079
#TAUWIND     : 0
#TDEADLYR    : 0
#TACTLYR     : 0.045
#TALWIND     : 0.025
#CHOFFSET    : 0.0
#XLABEL      : Energy (eV)
#YLABEL      : Counts
#XPOSITION   : -11.58855
#YPOSITION   : 2.25291
#ZPOSITION   : 34.11879
#EDSDET      : SD
##SPECIMEN   : MMM2 Willemite[4][all]
##DET_HASH   : 12273538-fd48-a23f-0a19-f1e6fa85caef
##CALIB_HASH : 6abaa72c-aa41-8738-0be9-f592914732f3
##WORKING    : 15.0 mm
##DET_NAME   : EDAX All
##DET_MODE   : MediumLE
#SPECTRUM    :
20,
295,
15285,
9140,
59429,
6573,
14656,
164665,
7942,
4993,
4425,
5548,
27420,
14497,
4124,
4033,
4106,
3794,
3750,
3799,
3777,
3491,
3272,
3168,
3045,
3018,
2775,
2724,
2569,
2483,
2465,
2260,
2250,
2150,
2124,
1992,
1997,
1852,
1785,
1806,
1598,
1752,
7138,
1989,
1429,
1468,
1969,
1392,
1232,
1193,
1119,
1085,
1048,
973,
977,
935,
873,
851,
839,
855,
889,
8291,
13396,
941,
698,
684,
637,
720,
2430,
1393,
499,
435,
464,
473,
446,
406,
371,
359,
324,
302,
294,
291,
281,
252,
223,
198,
210,
182,
181,
142,
147,
138,
134,
135,
97,
88,
89,
83,
60,
67,
68,
43,
36,
26,
15,
14,
5,
3,
2,
0,
0,
0,
2,
1,
2,
1,
1,
0,
0,
0,
0,
1,
0,
3,
2,
0,
2,
1,
0,
0,
1,
0,
0,
0,
0,
0,
0,
0,
0,
0,
0,
0,
0,
0,
0,
0,
1,
0,
0,
0,
0,
0,
0,
0,
0,
0,
0,
0,
0,
0,
0,
0,
0,
0,
0,
0,
0,
0,
0,
0,
0,
0,
0,
0,
0,
0,
0,
0,
0,
0,
0,
0,
0,
0,
0,
0,
0,
0,
0,
0,
0,
0,
0,
0,
0,
0,
0,
0,
0,
0,
0,
0,
0,
0,
0,
0,
0,
0,
0,
0,
0,
0,
0,
0,
0,
0,
0,
0,
0,
0,
0,
0,
0,
0,
0,
0,
0,
0,
0,
0,
0,
0,
0,
0,
0,
0,
0,
0,
0,
0,
0,
0,
0,
0,
0,
0,
0,
0,
0,
0,
0,
0,
0,
0,
0,
0,
0,
0,
0,
0,
0,
0,
0,
0,
0,
0,
0,
0,
0,
0,
0,
0,
0,
0,
0,
0,
0,
0,
0,
0,
0,
0,
0,
0,
0,
0,
0,
0,
0,
0,
0,
0,
0,
0,
#ENDOFDATA   :