File: N132962/Quantification/15 keV/Mengason MM2/MMM2 Scheelite[4][4].msa
#FORMAT      : EMSA/MAS Spectral Data File
#VERSION     : 1.0
#TITLE       : MMM2 Scheelite[4][all]
#DATE        : 29-SEP-2025
#TIME        : 00:28
#OWNER       : Unknown
#NPOINTS     : 4096
#NCOLUMNS    : 1
#XUNITS      : eV
#YUNITS      : counts
#DATATYPE    : Y
#XPERCHAN    : 9.99778
#OFFSET      : 1.69135
#BEAMKV      : 15
#SIGNALTYPE  : EDS
#ELEVANGLE   : 35
#AZIMANGLE   : 0
#LIVETIME    : 240.243
#REALTIME    : 260.591
#PROBECUR    : 1.21186
#TAUWIND     : 0
#TDEADLYR    : 0
#TACTLYR     : 0.045
#TALWIND     : 0.025
#CHOFFSET    : 0.0
#XLABEL      : Energy (eV)
#YLABEL      : Counts
#XPOSITION   : -17.47639
#YPOSITION   : 4.44086
#ZPOSITION   : 34.11879
#EDSDET      : SD
##SPECIMEN   : MMM2 Scheelite[4][all]
##DET_HASH   : 12273538-fd48-a23f-0a19-f1e6fa85caef
##CALIB_HASH : 6abaa72c-aa41-8738-0be9-f592914732f3
##WORKING    : 15.0 mm
##DET_NAME   : EDAX All
##DET_MODE   : MediumLE
#SPECTRUM    :
35,
691,
23382,
6777,
28883,
6733,
7814,
8511,
9204,
10048,
22560,
10520,
21185,
173048,
7711,
6687,
6087,
6075,
5044,
5021,
5049,
4945,
4871,
4772,
4721,
5090,
30057,
12738,
5572,
7977,
4042,
3809,
3705,
3672,
3540,
3512,
3493,
3243,
3267,
3268,
3092,
2976,
2862,
2835,
2698,
2623,
2608,
2437,
2400,
2306,
2289,
2257,
2181,
2505,
2064,
1952,
1870,
1800,
1753,
3414,
11126,
2351,
1556,
1521,
1516,
1376,
1304,
1314,
1865,
3659,
1913,
2885,
1353,
1023,
897,
897,
862,
790,
861,
785,
956,
961,
678,
745,
590,
542,
506,
472,
433,
412,
366,
347,
331,
327,
257,
246,
216,
209,
177,
155,
133,
123,
89,
73,
45,
34,
20,
9,
5,
7,
3,
3,
8,
2,
1,
3,
4,
4,
4,
0,
1,
2,
1,
1,
0,
1,
1,
1,
0,
0,
2,
0,
0,
0,
1,
1,
1,
1,
3,
0,
2,
1,
0,
2,
0,
1,
0,
1,
2,
0,
0,
1,
1,
0,
0,
0,
1,
1,
0,
0,
0,
0,
1,
0,
0,
0,
0,
0,
0,
0,
0,
0,
0,
0,
0,
0,
0,
0,
0,
0,
0,
0,
0,
0,
0,
0,
0,
0,
0,
0,
0,
0,
0,
0,
0,
0,
0,
0,
0,
0,
0,
0,
0,
0,
0,
0,
0,
0,
0,
0,
0,
0,
0,
0,
0,
0,
0,
0,
0,
0,
0,
0,
0,
0,
0,
0,
0,
0,
0,
0,
0,
0,
0,
0,
0,
0,
0,
0,
0,
0,
0,
0,
0,
0,
0,
0,
0,
0,
0,
0,
0,
0,
0,
0,
0,
0,
0,
0,
0,
0,
0,
0,
0,
0,
0,
0,
0,
0,
0,
0,
0,
0,
0,
0,
0,
0,
0,
0,
0,
0,
0,
0,
0,
0,
0,
0,
0,
0,
0,
0,
0,
0,
0,
0,
#ENDOFDATA   :