File: N132962/Quantification/15 keV/Mengason MM2/MMM2 Zircon[4][4].msa
#FORMAT      : EMSA/MAS Spectral Data File
#VERSION     : 1.0
#TITLE       : MMM2 Zircon[4][all]
#DATE        : 29-SEP-2025
#TIME        : 01:10
#OWNER       : Unknown
#NPOINTS     : 4096
#NCOLUMNS    : 1
#XUNITS      : eV
#YUNITS      : counts
#DATATYPE    : Y
#XPERCHAN    : 9.99778
#OFFSET      : 1.69135
#BEAMKV      : 15
#SIGNALTYPE  : EDS
#ELEVANGLE   : 35
#AZIMANGLE   : 0
#LIVETIME    : 240.267
#REALTIME    : 257.075
#PROBECUR    : 1.21247
#TAUWIND     : 0
#TDEADLYR    : 0
#TACTLYR     : 0.045
#TALWIND     : 0.025
#CHOFFSET    : 0.0
#XLABEL      : Energy (eV)
#YLABEL      : Counts
#XPOSITION   : -13.62661
#YPOSITION   : 6.97384
#ZPOSITION   : 34.11879
#EDSDET      : SD
##SPECIMEN   : MMM2 Zircon[4][all]
##D2STDCMP   : Zircon,(O:34.9128),(Si:15.3216),(Zr:49.7657),8.0
##DET_HASH   : 12273538-fd48-a23f-0a19-f1e6fa85caef
##CALIB_HASH : 6abaa72c-aa41-8738-0be9-f592914732f3
##WORKING    : 15.0 mm
##DET_NAME   : EDAX All
##DET_MODE   : MediumLE
#SPECTRUM    :
32,
1017,
18010,
6541,
36643,
4636,
5480,
6328,
6928,
7548,
7579,
8218,
48391,
30289,
26628,
93855,
11924,
3557,
4410,
3325,
3231,
3104,
3145,
3083,
2970,
3120,
2856,
3045,
2720,
2716,
2506,
2475,
2273,
2216,
2229,
2142,
2004,
1980,
1906,
1825,
1823,
1718,
1742,
1611,
1610,
1469,
1474,
1352,
1346,
1361,
1209,
1164,
1151,
1155,
1102,
1041,
1141,
1011,
917,
902,
863,
851,
824,
802,
768,
701,
704,
629,
591,
609,
571,
568,
512,
514,
477,
457,
455,
426,
370,
381,
375,
324,
345,
291,
249,
230,
242,
208,
209,
172,
173,
167,
135,
144,
110,
122,
98,
87,
83,
64,
62,
39,
44,
20,
23,
23,
5,
2,
0,
1,
0,
2,
2,
0,
0,
1,
3,
1,
1,
0,
0,
0,
0,
0,
0,
1,
0,
0,
0,
0,
0,
0,
0,
0,
0,
0,
0,
1,
0,
0,
0,
0,
0,
0,
0,
0,
0,
0,
0,
0,
0,
0,
0,
0,
0,
0,
0,
0,
0,
0,
0,
0,
0,
0,
0,
0,
0,
0,
0,
0,
0,
0,
0,
0,
0,
0,
0,
0,
0,
0,
0,
0,
0,
0,
0,
0,
0,
0,
0,
0,
0,
0,
0,
0,
0,
0,
0,
0,
0,
0,
0,
0,
0,
0,
0,
0,
0,
0,
0,
0,
0,
0,
0,
0,
0,
0,
0,
0,
0,
0,
0,
0,
0,
0,
0,
0,
0,
0,
0,
0,
0,
0,
0,
0,
0,
0,
0,
0,
0,
0,
0,
0,
0,
0,
0,
0,
0,
0,
0,
0,
0,
0,
0,
0,
0,
0,
0,
0,
0,
0,
0,
0,
0,
0,
0,
0,
0,
0,
0,
0,
0,
0,
0,
0,
0,
0,
0,
0,
0,
0,
0,
0,
0,
0,
0,
0,
0,
0,
0,
0,
0,
0,
0,
0,
#ENDOFDATA   :