File: N132962/Quantification/15 keV/Mengason MM2/MMM2 Manganotantalite[6][4].msa
#FORMAT      : EMSA/MAS Spectral Data File
#VERSION     : 1.0
#TITLE       : MMM2 Manganotantalite[6][all]
#DATE        : 28-SEP-2025
#TIME        : 22:57
#OWNER       : Unknown
#NPOINTS     : 4096
#NCOLUMNS    : 1
#XUNITS      : eV
#YUNITS      : counts
#DATATYPE    : Y
#XPERCHAN    : 9.99778
#OFFSET      : 1.69135
#BEAMKV      : 15
#SIGNALTYPE  : EDS
#ELEVANGLE   : 35
#AZIMANGLE   : 0
#LIVETIME    : 240.221
#REALTIME    : 259.885
#PROBECUR    : 1.2132
#TAUWIND     : 0
#TDEADLYR    : 0
#TACTLYR     : 0.045
#TALWIND     : 0.025
#CHOFFSET    : 0.0
#XLABEL      : Energy (eV)
#YLABEL      : Counts
#XPOSITION   : -22.53371
#YPOSITION   : -0.35155
#ZPOSITION   : 34.11879
#EDSDET      : SD
##SPECIMEN   : MMM2 Manganotantalite[6][all]
##DET_HASH   : 12273538-fd48-a23f-0a19-f1e6fa85caef
##CALIB_HASH : 6abaa72c-aa41-8738-0be9-f592914732f3
##WORKING    : 15.0 mm
##DET_NAME   : EDAX All
##DET_MODE   : MediumLE
#SPECTRUM    :
21,
1082,
18975,
8548,
35517,
10435,
7437,
8095,
8828,
11753,
12066,
10568,
130785,
30292,
11026,
14023,
21835,
7012,
5193,
5463,
4956,
4791,
4792,
4725,
4805,
4745,
4490,
4510,
4348,
4092,
4057,
3945,
4563,
3942,
3604,
3531,
3530,
3561,
3310,
3220,
3085,
3492,
17345,
3848,
2653,
3335,
5838,
2972,
2333,
2368,
2440,
2730,
2130,
2055,
2120,
1893,
1879,
2380,
11141,
3395,
1708,
1642,
1507,
1456,
1432,
1389,
2608,
3620,
1973,
2940,
1338,
1047,
965,
957,
916,
886,
827,
972,
1209,
773,
778,
727,
640,
608,
565,
505,
475,
414,
423,
415,
394,
378,
318,
279,
264,
251,
232,
203,
179,
147,
115,
143,
105,
85,
62,
32,
33,
11,
9,
6,
4,
1,
3,
6,
1,
4,
2,
4,
1,
0,
1,
2,
1,
0,
2,
1,
1,
3,
2,
2,
1,
2,
0,
1,
1,
1,
2,
0,
2,
0,
1,
1,
1,
0,
1,
0,
0,
0,
0,
0,
1,
0,
0,
1,
0,
0,
0,
2,
1,
1,
0,
0,
1,
1,
0,
0,
0,
0,
0,
0,
0,
1,
0,
0,
0,
0,
0,
0,
1,
0,
0,
0,
0,
0,
0,
0,
0,
0,
0,
0,
0,
0,
0,
0,
0,
0,
0,
1,
0,
0,
0,
0,
0,
0,
0,
0,
0,
0,
0,
0,
0,
0,
0,
0,
0,
0,
0,
0,
0,
0,
0,
0,
0,
0,
0,
0,
0,
0,
0,
0,
0,
0,
0,
0,
0,
0,
0,
0,
0,
0,
0,
0,
0,
0,
0,
0,
0,
0,
0,
0,
0,
0,
0,
0,
0,
0,
0,
0,
0,
0,
0,
0,
0,
0,
0,
0,
0,
0,
0,
0,
0,
0,
0,
0,
0,
0,
0,
0,
0,
0,
0,
0,
0,
0,
0,
0,
0,
0,
0,
0,
0,
0,
0,
0,
#ENDOFDATA   :