File: N132962/Quantification/15 keV/Mengason MM2/MMM2 Pollucite[4][4].msa
#FORMAT      : EMSA/MAS Spectral Data File
#VERSION     : 1.0
#TITLE       : MMM2 Pollucite[4][all]
#DATE        : 29-SEP-2025
#TIME        : 00:39
#OWNER       : Unknown
#NPOINTS     : 4096
#NCOLUMNS    : 1
#XUNITS      : eV
#YUNITS      : counts
#DATATYPE    : Y
#XPERCHAN    : 9.99778
#OFFSET      : 1.69135
#BEAMKV      : 15
#SIGNALTYPE  : EDS
#ELEVANGLE   : 35
#AZIMANGLE   : 0
#LIVETIME    : 240.199
#REALTIME    : 257.458
#PROBECUR    : 1.21186
#TAUWIND     : 0
#TDEADLYR    : 0
#TACTLYR     : 0.045
#TALWIND     : 0.025
#CHOFFSET    : 0.0
#XLABEL      : Energy (eV)
#YLABEL      : Counts
#XPOSITION   : -20.64475
#YPOSITION   : 3.77452
#ZPOSITION   : 34.11879
#EDSDET      : SD
##SPECIMEN   : MMM2 Pollucite[4][all]
##DET_HASH   : 12273538-fd48-a23f-0a19-f1e6fa85caef
##CALIB_HASH : 6abaa72c-aa41-8738-0be9-f592914732f3
##WORKING    : 15.0 mm
##DET_NAME   : EDAX All
##DET_MODE   : MediumLE
#SPECTRUM    :
24,
303,
15195,
11349,
85995,
6732,
4794,
7648,
5101,
5366,
9367,
25335,
46952,
23115,
4095,
3862,
4262,
3822,
3801,
3677,
3529,
3407,
3237,
3214,
3099,
2949,
2891,
3855,
2651,
2724,
9562,
19883,
2641,
16470,
4754,
5821,
2729,
2078,
3196,
1935,
2065,
1705,
1443,
1472,
1411,
1314,
1312,
1240,
1215,
1133,
1049,
1039,
1034,
998,
1050,
967,
884,
833,
827,
796,
754,
811,
730,
715,
648,
638,
616,
580,
554,
534,
486,
476,
450,
433,
457,
411,
382,
408,
329,
372,
314,
317,
321,
242,
244,
263,
221,
192,
217,
167,
172,
132,
134,
111,
114,
102,
76,
79,
64,
53,
44,
46,
35,
25,
32,
14,
3,
3,
0,
3,
1,
0,
1,
1,
0,
1,
1,
1,
1,
0,
2,
0,
0,
0,
1,
1,
1,
0,
0,
0,
0,
0,
0,
0,
0,
0,
0,
0,
0,
0,
0,
0,
0,
0,
0,
0,
0,
0,
0,
0,
0,
0,
0,
0,
0,
0,
0,
0,
0,
0,
0,
0,
0,
0,
0,
0,
0,
0,
0,
0,
0,
0,
0,
0,
0,
0,
0,
0,
0,
0,
0,
0,
0,
0,
0,
0,
0,
0,
0,
0,
0,
0,
0,
0,
0,
0,
0,
0,
0,
0,
0,
0,
0,
0,
0,
0,
0,
0,
0,
0,
0,
0,
0,
0,
0,
0,
0,
0,
0,
0,
0,
0,
0,
0,
0,
0,
0,
0,
0,
0,
0,
0,
0,
0,
0,
0,
0,
0,
0,
0,
0,
0,
0,
0,
0,
0,
0,
0,
0,
0,
0,
0,
0,
0,
0,
0,
0,
0,
0,
0,
0,
0,
0,
0,
0,
0,
0,
0,
0,
0,
0,
0,
0,
0,
0,
0,
0,
0,
0,
0,
0,
0,
0,
0,
0,
0,
0,
0,
0,
0,
0,
0,
0,
0,
#ENDOFDATA   :