File: N132962/Quantification/15 keV/Mengason MM2/MMM2 Zircon-2[5][4].msa
#FORMAT      : EMSA/MAS Spectral Data File
#VERSION     : 1.0
#TITLE       : MMM2 Zircon-2[5][all]
#DATE        : 29-SEP-2025
#TIME        : 01:21
#OWNER       : Unknown
#NPOINTS     : 4096
#NCOLUMNS    : 1
#XUNITS      : eV
#YUNITS      : counts
#DATATYPE    : Y
#XPERCHAN    : 9.99778
#OFFSET      : 1.69135
#BEAMKV      : 15
#SIGNALTYPE  : EDS
#ELEVANGLE   : 35
#AZIMANGLE   : 0
#LIVETIME    : 240.254
#REALTIME    : 257.1287
#PROBECUR    : 1.21248
#TAUWIND     : 0
#TDEADLYR    : 0
#TACTLYR     : 0.045
#TALWIND     : 0.025
#CHOFFSET    : 0.0
#XLABEL      : Energy (eV)
#YLABEL      : Counts
#XPOSITION   : -14.66117
#YPOSITION   : 7.63321
#ZPOSITION   : 34.11879
#EDSDET      : SD
##SPECIMEN   : MMM2 Zircon-2[5][all]
##DET_HASH   : 12273538-fd48-a23f-0a19-f1e6fa85caef
##CALIB_HASH : 6abaa72c-aa41-8738-0be9-f592914732f3
##WORKING    : 15.0 mm
##DET_NAME   : EDAX All
##DET_MODE   : MediumLE
#SPECTRUM    :
28,
1057,
18033,
6541,
37157,
4556,
5602,
6387,
6740,
7476,
7671,
8046,
48222,
30243,
26878,
94307,
11982,
3529,
4304,
3175,
3232,
3039,
3152,
3112,
3001,
3026,
2810,
2911,
2805,
2744,
2490,
2396,
2290,
2180,
2212,
2072,
2117,
1992,
1890,
1885,
1798,
1708,
1700,
1673,
1607,
1540,
1582,
1445,
1352,
1337,
1353,
1283,
1160,
1144,
1083,
1065,
1050,
974,
931,
896,
858,
834,
782,
707,
784,
682,
657,
677,
615,
601,
609,
535,
532,
475,
479,
444,
471,
414,
387,
371,
320,
307,
279,
313,
273,
245,
249,
224,
221,
205,
190,
154,
158,
135,
132,
121,
90,
79,
80,
64,
59,
46,
34,
34,
27,
25,
8,
0,
0,
1,
1,
2,
2,
2,
1,
2,
0,
0,
0,
1,
0,
0,
0,
0,
0,
0,
0,
0,
0,
1,
0,
1,
0,
0,
0,
0,
0,
0,
0,
0,
0,
0,
0,
0,
0,
0,
0,
0,
0,
0,
0,
0,
0,
0,
0,
0,
0,
0,
0,
0,
0,
0,
0,
0,
0,
0,
0,
0,
0,
0,
0,
0,
0,
0,
0,
0,
0,
0,
0,
0,
0,
0,
0,
0,
0,
0,
0,
0,
0,
0,
0,
0,
0,
0,
0,
0,
0,
0,
0,
0,
0,
0,
0,
0,
0,
0,
0,
0,
0,
0,
0,
0,
0,
0,
0,
0,
0,
0,
0,
0,
0,
0,
0,
0,
0,
0,
0,
0,
0,
0,
0,
0,
0,
0,
0,
0,
0,
0,
0,
0,
0,
0,
0,
0,
0,
0,
0,
0,
0,
0,
0,
0,
0,
0,
0,
0,
0,
0,
0,
0,
0,
0,
0,
0,
0,
0,
0,
0,
0,
0,
0,
0,
0,
0,
0,
0,
0,
0,
0,
0,
0,
0,
0,
0,
0,
0,
0,
0,
0,
0,
0,
0,
0,
0,
#ENDOFDATA   :