File: N132962/Quantification/15 keV/Mengason MM2/MMM2 Uvarovite[1][4].msa
#FORMAT      : EMSA/MAS Spectral Data File
#VERSION     : 1.0
#TITLE       : MMM2 Uvarovite[1][all]
#DATE        : 28-SEP-2025
#TIME        : 22:10
#OWNER       : Unknown
#NPOINTS     : 4096
#NCOLUMNS    : 1
#XUNITS      : eV
#YUNITS      : counts
#DATATYPE    : Y
#XPERCHAN    : 9.99778
#OFFSET      : 1.69135
#BEAMKV      : 15
#SIGNALTYPE  : EDS
#ELEVANGLE   : 35
#AZIMANGLE   : 0
#LIVETIME    : 240.192
#REALTIME    : 254.376
#PROBECUR    : 1.21223
#TAUWIND     : 0
#TDEADLYR    : 0
#TACTLYR     : 0.045
#TALWIND     : 0.025
#CHOFFSET    : 0.0
#XLABEL      : Energy (eV)
#YLABEL      : Counts
#XPOSITION   : -9.27452
#YPOSITION   : -0.10869
#ZPOSITION   : 34.11879
#EDSDET      : SD
##SPECIMEN   : MMM2 Uvarovite[1][all]
##DET_HASH   : 12273538-fd48-a23f-0a19-f1e6fa85caef
##CALIB_HASH : 6abaa72c-aa41-8738-0be9-f592914732f3
##WORKING    : 15.0 mm
##DET_NAME   : EDAX All
##DET_MODE   : MediumLE
#SPECTRUM    :
26,
293,
19469,
6720,
47959,
3717,
3370,
4035,
4493,
5261,
6766,
13484,
42066,
20968,
4375,
3339,
3494,
3108,
3070,
2886,
2814,
2642,
2551,
2567,
2332,
2737,
45829,
15670,
3860,
8070,
1720,
1615,
3246,
1659,
1382,
1830,
1388,
1323,
5814,
13763,
1193,
1150,
2459,
1919,
943,
1107,
1530,
824,
807,
717,
801,
757,
702,
630,
636,
681,
578,
546,
516,
536,
473,
477,
466,
401,
422,
416,
374,
370,
326,
363,
315,
319,
305,
291,
270,
265,
242,
241,
217,
222,
162,
185,
147,
167,
140,
127,
153,
127,
144,
112,
102,
83,
90,
86,
64,
66,
55,
37,
38,
29,
25,
18,
20,
16,
13,
11,
8,
3,
1,
1,
0,
0,
1,
0,
0,
0,
1,
0,
0,
0,
1,
0,
0,
2,
0,
0,
0,
0,
0,
0,
0,
0,
0,
0,
0,
0,
0,
0,
0,
0,
0,
0,
0,
0,
0,
1,
0,
0,
0,
0,
0,
0,
0,
0,
0,
0,
0,
0,
0,
0,
0,
0,
0,
0,
0,
0,
0,
0,
0,
0,
0,
0,
0,
0,
0,
0,
0,
0,
0,
0,
0,
0,
0,
0,
0,
0,
0,
0,
0,
0,
0,
0,
0,
0,
0,
0,
0,
0,
0,
0,
0,
0,
0,
0,
0,
0,
0,
0,
0,
0,
0,
0,
0,
0,
0,
0,
0,
0,
0,
0,
0,
0,
0,
0,
0,
0,
0,
0,
0,
0,
0,
0,
0,
0,
0,
0,
0,
0,
0,
0,
0,
0,
0,
0,
0,
0,
0,
0,
0,
0,
0,
0,
0,
0,
0,
0,
0,
0,
0,
0,
0,
0,
0,
0,
0,
0,
0,
0,
0,
0,
0,
0,
0,
0,
0,
0,
0,
0,
0,
0,
0,
0,
0,
0,
0,
0,
0,
0,
0,
0,
0,
0,
0,
0,
#ENDOFDATA   :