File: N132962/Quantification/15 keV/Mengason MM2/MMM2 Sphene[6][4].msa
#FORMAT      : EMSA/MAS Spectral Data File
#VERSION     : 1.0
#TITLE       : MMM2 Sphene[6][all]
#DATE        : 28-SEP-2025
#TIME        : 22:05
#OWNER       : Unknown
#NPOINTS     : 4096
#NCOLUMNS    : 1
#XUNITS      : eV
#YUNITS      : counts
#DATATYPE    : Y
#XPERCHAN    : 9.99778
#OFFSET      : 1.69135
#BEAMKV      : 15
#SIGNALTYPE  : EDS
#ELEVANGLE   : 35
#AZIMANGLE   : 0
#LIVETIME    : 240.1239
#REALTIME    : 253.3563
#PROBECUR    : 1.21223
#TAUWIND     : 0
#TDEADLYR    : 0
#TACTLYR     : 0.045
#TALWIND     : 0.025
#CHOFFSET    : 0.0
#XLABEL      : Energy (eV)
#YLABEL      : Counts
#XPOSITION   : -11.21373
#YPOSITION   : -1.87516
#ZPOSITION   : 34.11879
#EDSDET      : SD
##SPECIMEN   : MMM2 Sphene[6][all]
##DET_HASH   : 12273538-fd48-a23f-0a19-f1e6fa85caef
##CALIB_HASH : 6abaa72c-aa41-8738-0be9-f592914732f3
##WORKING    : 15.0 mm
##DET_NAME   : EDAX All
##DET_MODE   : MediumLE
#SPECTRUM    :
24,
299,
19330,
11956,
32466,
3307,
3334,
3831,
4505,
4901,
5446,
7429,
37315,
18797,
4325,
3583,
3789,
3223,
3069,
2920,
3054,
2647,
2543,
2500,
2295,
2726,
39050,
13617,
3648,
7267,
1724,
2151,
41128,
5704,
1625,
6615,
2184,
1233,
1160,
1241,
1116,
1048,
1011,
1010,
978,
1052,
1126,
869,
758,
747,
785,
704,
695,
664,
631,
644,
586,
561,
570,
553,
500,
493,
465,
434,
449,
385,
366,
365,
350,
311,
298,
340,
289,
270,
271,
247,
226,
196,
226,
191,
197,
174,
188,
128,
148,
138,
137,
118,
115,
105,
82,
87,
71,
76,
71,
73,
52,
32,
49,
37,
25,
23,
16,
18,
11,
6,
4,
1,
0,
1,
0,
0,
0,
1,
0,
0,
0,
2,
1,
0,
0,
0,
0,
0,
1,
0,
0,
0,
0,
0,
0,
1,
0,
0,
0,
0,
0,
0,
1,
0,
0,
0,
0,
0,
0,
0,
0,
0,
0,
0,
0,
0,
0,
0,
0,
0,
0,
0,
0,
0,
0,
0,
0,
0,
0,
0,
0,
0,
0,
0,
0,
0,
0,
0,
0,
0,
0,
0,
0,
0,
0,
0,
0,
0,
0,
0,
0,
0,
0,
0,
0,
0,
0,
0,
0,
0,
0,
0,
0,
0,
0,
0,
0,
0,
0,
0,
0,
0,
0,
0,
0,
0,
0,
0,
0,
0,
0,
0,
0,
0,
0,
0,
0,
0,
0,
0,
0,
0,
0,
0,
0,
0,
0,
0,
0,
0,
0,
0,
0,
0,
0,
0,
0,
0,
0,
0,
0,
0,
0,
0,
0,
0,
0,
0,
0,
0,
0,
0,
0,
0,
0,
0,
0,
0,
0,
0,
0,
0,
0,
0,
0,
0,
0,
0,
0,
0,
0,
0,
0,
0,
0,
0,
0,
0,
0,
0,
0,
0,
0,
0,
0,
0,
0,
0,
#ENDOFDATA   :