File: N132962/Quantification/15 keV/Mengason MM2/MMM2 Pyrite[2][4].msa
#FORMAT      : EMSA/MAS Spectral Data File
#VERSION     : 1.0
#TITLE       : MMM2 Pyrite[2][all]
#DATE        : 28-SEP-2025
#TIME        : 20:48
#OWNER       : Unknown
#NPOINTS     : 4096
#NCOLUMNS    : 1
#XUNITS      : eV
#YUNITS      : counts
#DATATYPE    : Y
#XPERCHAN    : 9.99778
#OFFSET      : 1.69135
#BEAMKV      : 15
#SIGNALTYPE  : EDS
#ELEVANGLE   : 35
#AZIMANGLE   : 0
#LIVETIME    : 240.218
#REALTIME    : 259.049
#PROBECUR    : 1.21333
#TAUWIND     : 0
#TDEADLYR    : 0
#TACTLYR     : 0.045
#TALWIND     : 0.025
#CHOFFSET    : 0.0
#XLABEL      : Energy (eV)
#YLABEL      : Counts
#XPOSITION   : -11.70612
#YPOSITION   : -4.31778
#ZPOSITION   : 34.11879
#EDSDET      : SD
##SPECIMEN   : MMM2 Pyrite[2][all]
##D2STDCMP   : Pyrite,(S:53.4528),(Fe:46.5472)
##DET_HASH   : 12273538-fd48-a23f-0a19-f1e6fa85caef
##CALIB_HASH : 6abaa72c-aa41-8738-0be9-f592914732f3
##WORKING    : 15.0 mm
##DET_NAME   : EDAX All
##DET_MODE   : MediumLE
#SPECTRUM    :
27,
1060,
14352,
3691,
18911,
85476,
4787,
4942,
5520,
6091,
6452,
6546,
6574,
6658,
5994,
6322,
92076,
70830,
12839,
3315,
3206,
3427,
3118,
2954,
2909,
2759,
2715,
2624,
2597,
2534,
2375,
2239,
2240,
2848,
2221,
1940,
1946,
1879,
1805,
1748,
1733,
1606,
1610,
1574,
1570,
12927,
37597,
1647,
1218,
1353,
5414,
3267,
1019,
976,
959,
934,
881,
840,
755,
824,
850,
760,
801,
723,
677,
673,
609,
553,
563,
559,
490,
463,
452,
449,
390,
408,
344,
323,
326,
331,
299,
278,
275,
291,
248,
196,
223,
177,
209,
162,
168,
169,
130,
99,
103,
95,
92,
72,
64,
53,
54,
45,
31,
40,
26,
18,
8,
0,
1,
1,
0,
0,
4,
1,
1,
0,
1,
2,
0,
0,
1,
0,
2,
1,
1,
0,
0,
0,
1,
1,
0,
1,
1,
0,
0,
0,
1,
1,
0,
0,
0,
0,
0,
0,
0,
0,
0,
0,
0,
0,
0,
0,
0,
0,
0,
0,
0,
1,
0,
0,
0,
0,
0,
0,
0,
0,
0,
0,
0,
0,
0,
0,
0,
0,
0,
0,
0,
0,
0,
0,
0,
0,
0,
0,
0,
0,
0,
0,
0,
0,
0,
0,
0,
0,
0,
0,
0,
0,
0,
0,
0,
0,
0,
0,
0,
0,
0,
0,
0,
0,
0,
0,
0,
0,
0,
0,
0,
0,
0,
0,
0,
0,
0,
0,
0,
0,
0,
0,
0,
0,
0,
0,
0,
0,
0,
0,
0,
0,
0,
0,
0,
0,
0,
0,
0,
0,
0,
0,
0,
0,
0,
0,
0,
0,
0,
0,
0,
0,
0,
0,
0,
0,
0,
0,
0,
0,
0,
0,
0,
0,
0,
0,
0,
0,
0,
0,
0,
0,
0,
0,
0,
0,
0,
0,
0,
0,
0,
0,
0,
0,
0,
0,
0,
0,
#ENDOFDATA   :