File: N132962/Quantification/15 keV/Mengason MM2/MMM2 Scheelite[0][4].msa
#FORMAT      : EMSA/MAS Spectral Data File
#VERSION     : 1.0
#TITLE       : MMM2 Scheelite[0][all]
#DATE        : 29-SEP-2025
#TIME        : 00:23
#OWNER       : Unknown
#NPOINTS     : 4096
#NCOLUMNS    : 1
#XUNITS      : eV
#YUNITS      : counts
#DATATYPE    : Y
#XPERCHAN    : 9.99778
#OFFSET      : 1.69135
#BEAMKV      : 15
#SIGNALTYPE  : EDS
#ELEVANGLE   : 35
#AZIMANGLE   : 0
#LIVETIME    : 240.258
#REALTIME    : 260.571
#PROBECUR    : 1.21186
#TAUWIND     : 0
#TDEADLYR    : 0
#TACTLYR     : 0.045
#TALWIND     : 0.025
#CHOFFSET    : 0.0
#XLABEL      : Energy (eV)
#YLABEL      : Counts
#XPOSITION   : -17.52537
#YPOSITION   : 4.48409
#ZPOSITION   : 34.11879
#EDSDET      : SD
##SPECIMEN   : MMM2 Scheelite[0][all]
##DET_HASH   : 12273538-fd48-a23f-0a19-f1e6fa85caef
##CALIB_HASH : 6abaa72c-aa41-8738-0be9-f592914732f3
##WORKING    : 15.0 mm
##DET_NAME   : EDAX All
##DET_MODE   : MediumLE
#SPECTRUM    :
24,
703,
23601,
6724,
28123,
6718,
7842,
8407,
9086,
9995,
22581,
10589,
21567,
174244,
8094,
6518,
5965,
6040,
5109,
5086,
5129,
4850,
4771,
4799,
4606,
5081,
30302,
12676,
5345,
7938,
3941,
3689,
3811,
3664,
3533,
3454,
3413,
3304,
3226,
3280,
2962,
3018,
2900,
2886,
2663,
2750,
2664,
2467,
2424,
2223,
2275,
2231,
2261,
2475,
2033,
1865,
1872,
1814,
1783,
3306,
11247,
2385,
1588,
1490,
1398,
1328,
1270,
1243,
1822,
3707,
1914,
2741,
1436,
1039,
947,
927,
864,
829,
734,
758,
997,
973,
743,
691,
604,
502,
515,
484,
427,
427,
373,
326,
345,
316,
274,
271,
223,
173,
187,
142,
159,
117,
98,
87,
53,
40,
16,
6,
3,
2,
3,
5,
2,
3,
3,
3,
7,
4,
2,
2,
2,
1,
1,
2,
3,
6,
5,
1,
1,
0,
1,
2,
1,
1,
0,
0,
1,
2,
0,
2,
0,
1,
0,
0,
0,
0,
2,
1,
1,
2,
0,
1,
0,
1,
0,
0,
1,
1,
0,
0,
0,
0,
0,
1,
0,
0,
0,
0,
0,
0,
0,
0,
0,
0,
0,
0,
0,
0,
0,
0,
1,
0,
0,
0,
0,
0,
0,
0,
0,
0,
0,
0,
0,
0,
0,
0,
0,
0,
0,
0,
0,
0,
0,
0,
0,
0,
0,
0,
0,
0,
0,
0,
0,
0,
0,
0,
0,
0,
0,
0,
0,
0,
0,
0,
0,
0,
0,
0,
0,
0,
0,
0,
0,
0,
0,
0,
0,
0,
0,
0,
0,
0,
0,
0,
0,
0,
0,
0,
0,
0,
0,
0,
0,
0,
0,
0,
0,
0,
0,
0,
0,
0,
0,
0,
0,
0,
0,
0,
0,
0,
0,
0,
0,
0,
0,
0,
0,
0,
0,
0,
0,
0,
0,
0,
0,
0,
0,
0,
0,
0,
0,
0,
0,
0,
#ENDOFDATA   :