File: N132962/Quantification/15 keV/Mengason MM2/MMM2 Pentlandite[1][4].msa
#FORMAT      : EMSA/MAS Spectral Data File
#VERSION     : 1.0
#TITLE       : MMM2 Pentlandite[1][all]
#DATE        : 28-SEP-2025
#TIME        : 21:39
#OWNER       : Unknown
#NPOINTS     : 4096
#NCOLUMNS    : 1
#XUNITS      : eV
#YUNITS      : counts
#DATATYPE    : Y
#XPERCHAN    : 9.99778
#OFFSET      : 1.69135
#BEAMKV      : 15
#SIGNALTYPE  : EDS
#ELEVANGLE   : 35
#AZIMANGLE   : 0
#LIVETIME    : 240.207
#REALTIME    : 257.775
#PROBECUR    : 1.21217
#TAUWIND     : 0
#TDEADLYR    : 0
#TACTLYR     : 0.045
#TALWIND     : 0.025
#CHOFFSET    : 0.0
#XLABEL      : Energy (eV)
#YLABEL      : Counts
#XPOSITION   : -15.89244
#YPOSITION   : -2.30549
#ZPOSITION   : 34.11879
#EDSDET      : SD
##SPECIMEN   : MMM2 Pentlandite[1][all]
##DET_HASH   : 12273538-fd48-a23f-0a19-f1e6fa85caef
##CALIB_HASH : 6abaa72c-aa41-8738-0be9-f592914732f3
##WORKING    : 15.0 mm
##DET_NAME   : EDAX All
##DET_MODE   : MediumLE
#SPECTRUM    :
26,
663,
15629,
4666,
16639,
66872,
87663,
4796,
4757,
5310,
5832,
6009,
6366,
6233,
5616,
5947,
56121,
43335,
9739,
3898,
3842,
3802,
3647,
3628,
3445,
3199,
3209,
2984,
2967,
2847,
2770,
2656,
2573,
2772,
2373,
2345,
2108,
2148,
2102,
1895,
1863,
1907,
1879,
1699,
1769,
9796,
27717,
1698,
1461,
1648,
4499,
2843,
1547,
17816,
8820,
1139,
1026,
1046,
1314,
3809,
1152,
818,
847,
773,
693,
706,
673,
620,
632,
584,
632,
577,
492,
490,
506,
484,
456,
429,
405,
370,
351,
327,
336,
279,
281,
243,
250,
242,
223,
205,
184,
190,
146,
148,
130,
113,
103,
112,
75,
82,
59,
50,
54,
32,
25,
15,
11,
5,
3,
1,
2,
2,
1,
2,
2,
1,
0,
0,
0,
2,
1,
1,
4,
1,
0,
1,
0,
0,
0,
0,
1,
1,
1,
0,
0,
2,
0,
1,
0,
0,
0,
0,
0,
0,
0,
0,
0,
0,
0,
0,
0,
0,
0,
0,
0,
0,
0,
0,
0,
0,
0,
0,
0,
0,
0,
0,
0,
0,
0,
0,
0,
0,
0,
0,
0,
0,
0,
0,
0,
0,
0,
0,
0,
0,
0,
0,
0,
0,
0,
0,
0,
0,
0,
0,
0,
0,
0,
0,
0,
0,
0,
0,
0,
0,
0,
0,
0,
0,
0,
0,
0,
0,
0,
0,
0,
0,
0,
0,
0,
0,
0,
0,
0,
0,
0,
0,
0,
0,
0,
0,
0,
0,
0,
0,
0,
0,
0,
0,
0,
0,
0,
0,
0,
0,
0,
0,
0,
0,
0,
0,
0,
0,
0,
0,
0,
0,
0,
0,
0,
0,
0,
0,
0,
0,
0,
0,
0,
0,
0,
0,
0,
0,
0,
0,
0,
0,
0,
0,
0,
0,
0,
0,
0,
0,
0,
0,
0,
0,
0,
0,
0,
0,
0,
0,
#ENDOFDATA   :