File: N132962/Quantification/15 keV/Mengason MM2/MMM2 Zircon-2[3][4].msa
#FORMAT      : EMSA/MAS Spectral Data File
#VERSION     : 1.0
#TITLE       : MMM2 Zircon-2[3][all]
#DATE        : 29-SEP-2025
#TIME        : 01:19
#OWNER       : Unknown
#NPOINTS     : 4096
#NCOLUMNS    : 1
#XUNITS      : eV
#YUNITS      : counts
#DATATYPE    : Y
#XPERCHAN    : 9.99778
#OFFSET      : 1.69135
#BEAMKV      : 15
#SIGNALTYPE  : EDS
#ELEVANGLE   : 35
#AZIMANGLE   : 0
#LIVETIME    : 240.274
#REALTIME    : 257.136
#PROBECUR    : 1.21247
#TAUWIND     : 0
#TDEADLYR    : 0
#TACTLYR     : 0.045
#TALWIND     : 0.025
#CHOFFSET    : 0.0
#XLABEL      : Energy (eV)
#YLABEL      : Counts
#XPOSITION   : -14.67753
#YPOSITION   : 7.57633
#ZPOSITION   : 34.11879
#EDSDET      : SD
##SPECIMEN   : MMM2 Zircon-2[3][all]
##DET_HASH   : 12273538-fd48-a23f-0a19-f1e6fa85caef
##CALIB_HASH : 6abaa72c-aa41-8738-0be9-f592914732f3
##WORKING    : 15.0 mm
##DET_NAME   : EDAX All
##DET_MODE   : MediumLE
#SPECTRUM    :
19,
1025,
18077,
6537,
37216,
4511,
5460,
6363,
6855,
7425,
7745,
8004,
48447,
30615,
26708,
94749,
11721,
3649,
4395,
3171,
3236,
3077,
3165,
3099,
2982,
3015,
2770,
2993,
2687,
2785,
2629,
2349,
2367,
2407,
2251,
2088,
2096,
2044,
1922,
1801,
1889,
1743,
1650,
1598,
1546,
1581,
1468,
1378,
1351,
1216,
1249,
1240,
1216,
1173,
1044,
1033,
1110,
1036,
904,
890,
854,
825,
765,
760,
778,
736,
696,
631,
654,
567,
593,
560,
510,
521,
471,
432,
414,
410,
383,
377,
321,
320,
317,
303,
254,
269,
202,
219,
190,
160,
180,
169,
161,
115,
118,
113,
79,
83,
101,
68,
68,
45,
40,
24,
28,
23,
5,
5,
2,
0,
1,
1,
1,
2,
0,
0,
1,
1,
1,
0,
0,
0,
0,
0,
0,
0,
0,
0,
0,
0,
1,
0,
0,
1,
0,
0,
0,
0,
0,
0,
0,
0,
0,
0,
0,
0,
0,
0,
0,
0,
1,
0,
0,
0,
0,
0,
0,
0,
0,
0,
0,
0,
0,
0,
0,
0,
0,
0,
0,
0,
0,
0,
0,
0,
0,
0,
0,
0,
0,
0,
0,
0,
0,
1,
0,
0,
0,
0,
0,
0,
0,
0,
0,
0,
0,
0,
0,
0,
0,
0,
0,
0,
0,
0,
0,
0,
0,
0,
0,
0,
0,
0,
0,
0,
0,
0,
0,
0,
0,
0,
0,
0,
0,
0,
0,
0,
0,
0,
0,
0,
0,
0,
0,
0,
0,
0,
0,
0,
0,
0,
0,
0,
0,
0,
0,
0,
0,
0,
0,
0,
0,
0,
0,
0,
0,
0,
0,
0,
0,
0,
0,
0,
0,
0,
0,
0,
0,
0,
0,
0,
0,
0,
0,
0,
0,
0,
0,
0,
0,
0,
0,
0,
0,
0,
0,
0,
0,
0,
0,
0,
0,
0,
0,
0,
#ENDOFDATA   :