File: N132962/Quantification/15 keV/Mengason MM2/MMM2 Manganotantalite[1][4].msa
#FORMAT      : EMSA/MAS Spectral Data File
#VERSION     : 1.0
#TITLE       : MMM2 Manganotantalite[1][all]
#DATE        : 28-SEP-2025
#TIME        : 22:51
#OWNER       : Unknown
#NPOINTS     : 4096
#NCOLUMNS    : 1
#XUNITS      : eV
#YUNITS      : counts
#DATATYPE    : Y
#XPERCHAN    : 9.99778
#OFFSET      : 1.69135
#BEAMKV      : 15
#SIGNALTYPE  : EDS
#ELEVANGLE   : 35
#AZIMANGLE   : 0
#LIVETIME    : 240.213
#REALTIME    : 259.695
#PROBECUR    : 1.2132
#TAUWIND     : 0
#TDEADLYR    : 0
#TACTLYR     : 0.045
#TALWIND     : 0.025
#CHOFFSET    : 0.0
#XLABEL      : Energy (eV)
#YLABEL      : Counts
#XPOSITION   : -22.44302
#YPOSITION   : -0.37646
#ZPOSITION   : 34.11879
#EDSDET      : SD
##SPECIMEN   : MMM2 Manganotantalite[1][all]
##DET_HASH   : 12273538-fd48-a23f-0a19-f1e6fa85caef
##CALIB_HASH : 6abaa72c-aa41-8738-0be9-f592914732f3
##WORKING    : 15.0 mm
##DET_NAME   : EDAX All
##DET_MODE   : MediumLE
#SPECTRUM    :
30,
1149,
19363,
8747,
35611,
10544,
7293,
7964,
8715,
11458,
11875,
10424,
126421,
29458,
10828,
15049,
23444,
7261,
5115,
5243,
4888,
4901,
4701,
4736,
4767,
4686,
4457,
4326,
4252,
4205,
4074,
3988,
4602,
3863,
3651,
3609,
3472,
3374,
3261,
3150,
3124,
3383,
17348,
3943,
2723,
3288,
5838,
2993,
2346,
2305,
2400,
2632,
2150,
1974,
1962,
1937,
1901,
2394,
10828,
3315,
1816,
1557,
1531,
1430,
1340,
1419,
2468,
3522,
1872,
2710,
1286,
1076,
987,
928,
906,
870,
862,
946,
1197,
778,
775,
714,
614,
601,
519,
457,
429,
471,
403,
393,
363,
342,
333,
268,
259,
244,
237,
213,
175,
145,
138,
118,
105,
67,
51,
47,
27,
12,
2,
6,
3,
5,
1,
1,
2,
4,
4,
2,
3,
1,
3,
0,
3,
2,
2,
1,
0,
1,
1,
1,
0,
2,
2,
0,
1,
0,
2,
1,
1,
1,
1,
1,
0,
1,
0,
0,
0,
0,
0,
0,
1,
0,
0,
1,
0,
0,
0,
0,
0,
0,
0,
0,
0,
1,
0,
0,
0,
0,
0,
0,
0,
0,
0,
0,
0,
0,
0,
0,
0,
0,
0,
0,
0,
0,
0,
0,
0,
0,
0,
0,
0,
0,
0,
0,
0,
0,
0,
0,
0,
0,
0,
0,
0,
0,
0,
0,
0,
0,
0,
0,
0,
0,
0,
0,
0,
0,
0,
0,
0,
0,
0,
0,
0,
0,
0,
0,
0,
0,
0,
0,
0,
0,
0,
0,
0,
0,
0,
0,
0,
0,
0,
0,
0,
0,
0,
0,
0,
0,
0,
0,
0,
0,
0,
0,
0,
0,
0,
0,
0,
0,
0,
0,
0,
0,
0,
0,
0,
0,
0,
0,
0,
0,
0,
0,
0,
0,
0,
0,
0,
0,
0,
0,
0,
0,
0,
0,
0,
0,
0,
0,
0,
0,
0,
0,
#ENDOFDATA   :