File: N132962/Quantification/15 keV/Mengason MM2/MMM2 Zircon-2[2][4].msa
#FORMAT      : EMSA/MAS Spectral Data File
#VERSION     : 1.0
#TITLE       : MMM2 Zircon-2[2][all]
#DATE        : 29-SEP-2025
#TIME        : 01:18
#OWNER       : Unknown
#NPOINTS     : 4096
#NCOLUMNS    : 1
#XUNITS      : eV
#YUNITS      : counts
#DATATYPE    : Y
#XPERCHAN    : 9.99778
#OFFSET      : 1.69135
#BEAMKV      : 15
#SIGNALTYPE  : EDS
#ELEVANGLE   : 35
#AZIMANGLE   : 0
#LIVETIME    : 240.258
#REALTIME    : 257.125
#PROBECUR    : 1.21248
#TAUWIND     : 0
#TDEADLYR    : 0
#TACTLYR     : 0.045
#TALWIND     : 0.025
#CHOFFSET    : 0.0
#XLABEL      : Energy (eV)
#YLABEL      : Counts
#XPOSITION   : -14.67589
#YPOSITION   : 7.61832
#ZPOSITION   : 34.11879
#EDSDET      : SD
##SPECIMEN   : MMM2 Zircon-2[2][all]
##DET_HASH   : 12273538-fd48-a23f-0a19-f1e6fa85caef
##CALIB_HASH : 6abaa72c-aa41-8738-0be9-f592914732f3
##WORKING    : 15.0 mm
##DET_NAME   : EDAX All
##DET_MODE   : MediumLE
#SPECTRUM    :
17,
991,
18296,
6582,
37063,
4640,
5498,
6246,
6728,
7575,
7623,
8136,
48357,
30674,
26665,
93808,
11808,
3536,
4346,
3279,
3209,
3153,
3087,
3082,
2896,
3001,
2900,
3051,
2841,
2676,
2454,
2436,
2340,
2274,
2218,
2119,
1996,
1994,
1917,
1855,
1791,
1691,
1693,
1625,
1548,
1492,
1500,
1430,
1362,
1290,
1254,
1236,
1170,
1216,
1101,
1010,
1090,
981,
943,
937,
874,
848,
795,
791,
738,
708,
640,
703,
654,
623,
590,
554,
534,
497,
506,
483,
422,
428,
394,
379,
347,
328,
316,
306,
293,
223,
253,
231,
171,
184,
180,
132,
167,
138,
115,
120,
90,
100,
79,
62,
58,
40,
45,
28,
26,
14,
6,
1,
2,
4,
1,
1,
0,
1,
0,
1,
2,
2,
0,
0,
0,
0,
0,
1,
0,
0,
0,
0,
0,
0,
1,
1,
0,
0,
0,
0,
0,
0,
1,
0,
0,
0,
0,
1,
0,
1,
0,
0,
0,
0,
0,
0,
0,
0,
0,
0,
0,
0,
0,
1,
0,
0,
0,
1,
0,
0,
0,
0,
0,
0,
0,
0,
0,
0,
0,
0,
0,
0,
0,
0,
0,
0,
0,
0,
0,
0,
0,
0,
0,
0,
0,
0,
0,
0,
0,
0,
0,
0,
0,
0,
0,
0,
0,
0,
0,
0,
0,
0,
0,
0,
0,
0,
0,
0,
0,
0,
0,
0,
0,
0,
0,
0,
0,
0,
0,
0,
0,
0,
0,
0,
0,
0,
0,
0,
0,
0,
0,
0,
0,
0,
0,
0,
0,
0,
0,
0,
0,
0,
0,
0,
0,
0,
0,
0,
0,
0,
0,
0,
0,
0,
0,
0,
0,
0,
0,
0,
0,
0,
0,
0,
0,
0,
0,
0,
0,
0,
0,
0,
0,
0,
0,
0,
0,
0,
0,
0,
0,
0,
0,
0,
0,
0,
0,
0,
#ENDOFDATA   :