File: N132962/Quantification/15 keV/Mengason MM2/MMM2 Stibnite[5][4].msa
#FORMAT      : EMSA/MAS Spectral Data File
#VERSION     : 1.0
#TITLE       : MMM2 Stibnite[5][all]
#DATE        : 28-SEP-2025
#TIME        : 23:38
#OWNER       : Unknown
#NPOINTS     : 4096
#NCOLUMNS    : 1
#XUNITS      : eV
#YUNITS      : counts
#DATATYPE    : Y
#XPERCHAN    : 9.99778
#OFFSET      : 1.69135
#BEAMKV      : 15
#SIGNALTYPE  : EDS
#ELEVANGLE   : 35
#AZIMANGLE   : 0
#LIVETIME    : 240.157
#REALTIME    : 260.27
#PROBECUR    : 1.21079
#TAUWIND     : 0
#TDEADLYR    : 0
#TACTLYR     : 0.045
#TALWIND     : 0.025
#CHOFFSET    : 0.0
#XLABEL      : Energy (eV)
#YLABEL      : Counts
#XPOSITION   : -14.46718
#YPOSITION   : 2.25235
#ZPOSITION   : 34.11879
#EDSDET      : SD
##SPECIMEN   : MMM2 Stibnite[5][all]
##DET_HASH   : 12273538-fd48-a23f-0a19-f1e6fa85caef
##CALIB_HASH : 6abaa72c-aa41-8738-0be9-f592914732f3
##WORKING    : 15.0 mm
##DET_NAME   : EDAX All
##DET_MODE   : MediumLE
#SPECTRUM    :
30,
2744,
19510,
23431,
10765,
7290,
6342,
6068,
6764,
7439,
8123,
8304,
8661,
9452,
7693,
8459,
54881,
42650,
11039,
5633,
5452,
5262,
5478,
8186,
5484,
14316,
80873,
21763,
29582,
13683,
5984,
8260,
3683,
5398,
3017,
2856,
2859,
2801,
2724,
2690,
2628,
2560,
2707,
2565,
2537,
2331,
2416,
2175,
2055,
2035,
2054,
1887,
1890,
1872,
1697,
1705,
1707,
1572,
1561,
1480,
1414,
1403,
1383,
1290,
1277,
1126,
1213,
1135,
1056,
1110,
1029,
958,
876,
855,
828,
831,
731,
745,
669,
662,
618,
601,
579,
535,
491,
493,
413,
413,
368,
363,
349,
298,
281,
273,
237,
230,
196,
188,
150,
153,
104,
96,
88,
59,
66,
34,
30,
5,
3,
4,
2,
1,
6,
2,
3,
0,
2,
1,
2,
2,
1,
3,
3,
2,
0,
2,
1,
1,
0,
0,
0,
5,
1,
0,
0,
1,
0,
0,
2,
0,
0,
0,
0,
0,
1,
0,
0,
0,
0,
0,
0,
1,
0,
0,
0,
0,
0,
0,
0,
0,
0,
0,
0,
0,
0,
0,
0,
0,
0,
0,
0,
0,
0,
0,
0,
0,
0,
0,
0,
0,
0,
0,
0,
0,
0,
0,
1,
0,
0,
0,
0,
0,
0,
0,
0,
0,
0,
0,
0,
0,
0,
0,
0,
0,
0,
0,
0,
0,
0,
0,
0,
0,
0,
0,
0,
0,
0,
0,
0,
0,
0,
0,
0,
0,
0,
0,
0,
0,
0,
0,
0,
0,
0,
0,
0,
0,
0,
0,
0,
0,
0,
0,
0,
0,
0,
0,
0,
0,
0,
0,
0,
0,
0,
0,
0,
0,
0,
0,
0,
0,
0,
0,
0,
0,
0,
0,
0,
0,
0,
0,
0,
0,
0,
0,
0,
0,
0,
0,
0,
0,
0,
0,
0,
0,
0,
0,
0,
0,
0,
0,
0,
0,
0,
0,
#ENDOFDATA   :