File: N132962/Quantification/15 keV/Mengason MM2/MMM2 Pentlandite[5][4].msa
#FORMAT      : EMSA/MAS Spectral Data File
#VERSION     : 1.0
#TITLE       : MMM2 Pentlandite[5][all]
#DATE        : 28-SEP-2025
#TIME        : 21:43
#OWNER       : Unknown
#NPOINTS     : 4096
#NCOLUMNS    : 1
#XUNITS      : eV
#YUNITS      : counts
#DATATYPE    : Y
#XPERCHAN    : 9.99778
#OFFSET      : 1.69135
#BEAMKV      : 15
#SIGNALTYPE  : EDS
#ELEVANGLE   : 35
#AZIMANGLE   : 0
#LIVETIME    : 240.265
#REALTIME    : 257.836
#PROBECUR    : 1.21217
#TAUWIND     : 0
#TDEADLYR    : 0
#TACTLYR     : 0.045
#TALWIND     : 0.025
#CHOFFSET    : 0.0
#XLABEL      : Energy (eV)
#YLABEL      : Counts
#XPOSITION   : -15.84654
#YPOSITION   : -2.40989
#ZPOSITION   : 34.11879
#EDSDET      : SD
##SPECIMEN   : MMM2 Pentlandite[5][all]
##DET_HASH   : 12273538-fd48-a23f-0a19-f1e6fa85caef
##CALIB_HASH : 6abaa72c-aa41-8738-0be9-f592914732f3
##WORKING    : 15.0 mm
##DET_NAME   : EDAX All
##DET_MODE   : MediumLE
#SPECTRUM    :
14,
634,
15469,
4785,
16649,
66983,
87436,
4585,
4640,
5342,
5745,
6106,
6221,
6310,
5662,
5897,
56221,
43716,
9830,
3835,
3766,
3784,
3612,
3548,
3384,
3244,
3205,
3001,
2972,
2819,
2802,
2622,
2541,
2747,
2423,
2287,
2268,
2212,
2014,
2009,
1893,
1896,
1837,
1706,
1801,
9824,
27553,
1827,
1471,
1731,
4640,
2897,
1521,
17739,
8837,
1182,
1060,
1039,
1296,
3796,
1204,
813,
829,
792,
710,
715,
732,
630,
623,
617,
644,
589,
545,
526,
478,
498,
479,
436,
376,
391,
381,
350,
308,
316,
313,
286,
215,
248,
205,
184,
194,
197,
148,
135,
123,
141,
124,
90,
97,
81,
49,
61,
44,
34,
25,
18,
7,
6,
4,
3,
0,
1,
3,
1,
2,
1,
3,
0,
1,
1,
0,
2,
1,
1,
1,
1,
0,
0,
0,
0,
0,
1,
1,
2,
0,
0,
0,
0,
0,
1,
0,
0,
1,
0,
0,
0,
1,
0,
0,
0,
0,
0,
0,
0,
0,
0,
0,
0,
0,
0,
0,
0,
0,
0,
0,
0,
0,
0,
0,
0,
0,
0,
0,
0,
0,
0,
0,
0,
0,
0,
0,
0,
0,
0,
0,
0,
0,
0,
0,
0,
0,
0,
0,
0,
0,
0,
0,
0,
0,
0,
0,
0,
0,
0,
0,
0,
0,
0,
0,
0,
0,
0,
0,
0,
0,
0,
0,
0,
0,
0,
0,
0,
0,
0,
0,
0,
0,
0,
0,
0,
0,
0,
0,
0,
0,
0,
0,
0,
0,
0,
0,
0,
0,
0,
0,
0,
0,
0,
0,
0,
0,
0,
0,
0,
0,
0,
0,
0,
0,
0,
0,
0,
0,
0,
0,
0,
0,
0,
0,
0,
0,
0,
0,
0,
0,
0,
0,
0,
0,
0,
0,
0,
0,
0,
0,
0,
0,
0,
0,
0,
0,
0,
0,
0,
#ENDOFDATA   :