File: N132962/Quantification/15 keV/Mengason MM2/MMM2 Manganotantalite[7][4].msa
#FORMAT      : EMSA/MAS Spectral Data File
#VERSION     : 1.0
#TITLE       : MMM2 Manganotantalite[7][all]
#DATE        : 28-SEP-2025
#TIME        : 22:58
#OWNER       : Unknown
#NPOINTS     : 4096
#NCOLUMNS    : 1
#XUNITS      : eV
#YUNITS      : counts
#DATATYPE    : Y
#XPERCHAN    : 9.99778
#OFFSET      : 1.69135
#BEAMKV      : 15
#SIGNALTYPE  : EDS
#ELEVANGLE   : 35
#AZIMANGLE   : 0
#LIVETIME    : 240.232
#REALTIME    : 259.888
#PROBECUR    : 1.2132
#TAUWIND     : 0
#TDEADLYR    : 0
#TACTLYR     : 0.045
#TALWIND     : 0.025
#CHOFFSET    : 0.0
#XLABEL      : Energy (eV)
#YLABEL      : Counts
#XPOSITION   : -22.51877
#YPOSITION   : -0.35118
#ZPOSITION   : 34.11879
#EDSDET      : SD
##SPECIMEN   : MMM2 Manganotantalite[7][all]
##DET_HASH   : 12273538-fd48-a23f-0a19-f1e6fa85caef
##CALIB_HASH : 6abaa72c-aa41-8738-0be9-f592914732f3
##WORKING    : 15.0 mm
##DET_NAME   : EDAX All
##DET_MODE   : MediumLE
#SPECTRUM    :
23,
1129,
19042,
8606,
35630,
10419,
7290,
8117,
8881,
11690,
12054,
10492,
130140,
29969,
10915,
14290,
22185,
7071,
5163,
5342,
4816,
4730,
4843,
4894,
4607,
4712,
4508,
4396,
4414,
4177,
4199,
3988,
4527,
3881,
3707,
3695,
3515,
3482,
3219,
3134,
3149,
3414,
17766,
3943,
2780,
3305,
5871,
2953,
2325,
2265,
2446,
2639,
2139,
1978,
2083,
2021,
1892,
2365,
11223,
3487,
1668,
1593,
1442,
1457,
1384,
1359,
2473,
3487,
1938,
2775,
1355,
1089,
1017,
971,
897,
882,
805,
967,
1154,
747,
822,
688,
649,
604,
558,
505,
491,
483,
447,
396,
361,
398,
353,
299,
285,
249,
235,
194,
207,
156,
130,
124,
85,
73,
56,
48,
25,
12,
6,
2,
4,
2,
1,
1,
2,
3,
2,
3,
3,
4,
1,
1,
2,
1,
2,
2,
0,
1,
1,
1,
1,
0,
0,
1,
0,
1,
1,
1,
1,
1,
2,
0,
2,
2,
0,
0,
0,
0,
0,
0,
0,
0,
0,
1,
0,
2,
0,
0,
0,
1,
0,
0,
0,
0,
0,
0,
0,
0,
0,
0,
0,
0,
0,
0,
0,
0,
0,
0,
0,
0,
0,
0,
0,
0,
1,
0,
0,
0,
0,
0,
0,
0,
0,
0,
0,
0,
0,
0,
0,
0,
0,
0,
0,
0,
0,
0,
0,
0,
0,
0,
0,
0,
0,
0,
0,
0,
0,
0,
0,
0,
0,
0,
0,
0,
0,
0,
0,
0,
0,
0,
0,
0,
0,
0,
0,
0,
0,
0,
0,
0,
0,
0,
0,
0,
0,
0,
0,
0,
0,
0,
0,
0,
0,
0,
0,
0,
0,
0,
0,
0,
0,
0,
0,
0,
0,
0,
0,
0,
0,
0,
0,
0,
0,
0,
0,
0,
0,
0,
0,
0,
0,
0,
0,
0,
0,
0,
0,
0,
0,
0,
0,
0,
0,
0,
#ENDOFDATA   :