File: N132962/Quantification/15 keV/Mengason MM2/MMM2 Stibnite[1][4].msa
#FORMAT      : EMSA/MAS Spectral Data File
#VERSION     : 1.0
#TITLE       : MMM2 Stibnite[1][all]
#DATE        : 28-SEP-2025
#TIME        : 23:33
#OWNER       : Unknown
#NPOINTS     : 4096
#NCOLUMNS    : 1
#XUNITS      : eV
#YUNITS      : counts
#DATATYPE    : Y
#XPERCHAN    : 9.99778
#OFFSET      : 1.69135
#BEAMKV      : 15
#SIGNALTYPE  : EDS
#ELEVANGLE   : 35
#AZIMANGLE   : 0
#LIVETIME    : 240.207
#REALTIME    : 260.3986
#PROBECUR    : 1.21079
#TAUWIND     : 0
#TDEADLYR    : 0
#TACTLYR     : 0.045
#TALWIND     : 0.025
#CHOFFSET    : 0.0
#XLABEL      : Energy (eV)
#YLABEL      : Counts
#XPOSITION   : -14.45572
#YPOSITION   : 2.30219
#ZPOSITION   : 34.11879
#EDSDET      : SD
##SPECIMEN   : MMM2 Stibnite[1][all]
##DET_HASH   : 12273538-fd48-a23f-0a19-f1e6fa85caef
##CALIB_HASH : 6abaa72c-aa41-8738-0be9-f592914732f3
##WORKING    : 15.0 mm
##DET_NAME   : EDAX All
##DET_MODE   : MediumLE
#SPECTRUM    :
36,
2694,
19291,
23372,
10749,
7397,
6201,
6082,
6756,
7480,
8083,
8275,
8608,
9206,
7753,
8486,
55062,
42854,
11304,
5710,
5449,
5403,
5500,
8153,
5618,
14646,
81116,
21754,
29411,
13628,
6073,
8424,
3715,
5320,
3063,
2864,
2940,
2769,
2867,
2668,
2672,
2556,
2623,
2495,
2394,
2324,
2418,
2143,
2204,
1993,
2098,
1998,
1925,
1919,
1840,
1740,
1690,
1635,
1520,
1468,
1466,
1348,
1315,
1325,
1278,
1215,
1125,
1131,
1114,
1060,
997,
958,
967,
910,
837,
816,
794,
705,
705,
667,
626,
590,
639,
517,
510,
466,
533,
403,
390,
360,
308,
337,
275,
272,
248,
212,
216,
190,
154,
138,
103,
92,
79,
79,
50,
37,
25,
12,
3,
2,
4,
3,
2,
4,
1,
1,
2,
1,
2,
2,
3,
1,
2,
2,
2,
0,
1,
0,
0,
4,
1,
0,
1,
0,
0,
0,
1,
1,
0,
1,
2,
0,
0,
0,
0,
0,
0,
0,
0,
0,
0,
0,
0,
0,
0,
0,
1,
0,
0,
0,
0,
0,
0,
0,
0,
0,
0,
0,
1,
0,
0,
0,
0,
0,
0,
0,
0,
0,
1,
0,
0,
0,
0,
0,
0,
0,
0,
0,
0,
0,
0,
0,
0,
0,
0,
0,
0,
0,
0,
0,
0,
0,
0,
0,
0,
0,
0,
0,
0,
0,
0,
0,
0,
0,
0,
0,
0,
0,
0,
0,
0,
0,
0,
0,
0,
0,
0,
0,
0,
0,
0,
0,
0,
0,
0,
0,
0,
0,
0,
0,
0,
0,
0,
0,
0,
0,
0,
0,
0,
0,
0,
0,
0,
0,
0,
0,
0,
0,
0,
0,
0,
0,
0,
0,
0,
0,
0,
0,
0,
0,
0,
0,
0,
0,
0,
0,
0,
0,
0,
0,
0,
0,
0,
0,
0,
0,
0,
0,
0,
0,
0,
0,
0,
0,
#ENDOFDATA   :