File: N132962/Quantification/15 keV/Mengason MM2/MMM2 Scheelite[5][4].msa
#FORMAT      : EMSA/MAS Spectral Data File
#VERSION     : 1.0
#TITLE       : MMM2 Scheelite[5][all]
#DATE        : 29-SEP-2025
#TIME        : 00:29
#OWNER       : Unknown
#NPOINTS     : 4096
#NCOLUMNS    : 1
#XUNITS      : eV
#YUNITS      : counts
#DATATYPE    : Y
#XPERCHAN    : 9.99778
#OFFSET      : 1.69135
#BEAMKV      : 15
#SIGNALTYPE  : EDS
#ELEVANGLE   : 35
#AZIMANGLE   : 0
#LIVETIME    : 240.27
#REALTIME    : 260.5934
#PROBECUR    : 1.21186
#TAUWIND     : 0
#TDEADLYR    : 0
#TACTLYR     : 0.045
#TALWIND     : 0.025
#CHOFFSET    : 0.0
#XLABEL      : Energy (eV)
#YLABEL      : Counts
#XPOSITION   : -17.6071
#YPOSITION   : 4.45242
#ZPOSITION   : 34.11879
#EDSDET      : SD
##SPECIMEN   : MMM2 Scheelite[5][all]
##DET_HASH   : 12273538-fd48-a23f-0a19-f1e6fa85caef
##CALIB_HASH : 6abaa72c-aa41-8738-0be9-f592914732f3
##WORKING    : 15.0 mm
##DET_NAME   : EDAX All
##DET_MODE   : MediumLE
#SPECTRUM    :
21,
701,
23613,
6802,
28757,
6696,
8000,
8413,
9228,
10030,
22387,
10595,
21380,
173297,
7905,
6568,
6078,
6020,
5215,
5012,
5095,
4864,
4912,
4834,
4766,
5127,
30509,
12565,
5429,
7972,
3997,
3775,
3764,
3684,
3704,
3528,
3442,
3234,
3315,
3321,
3033,
2874,
2894,
2788,
2628,
2643,
2562,
2430,
2372,
2277,
2264,
2199,
2286,
2547,
1952,
1886,
1875,
1784,
1800,
3426,
11126,
2376,
1513,
1424,
1383,
1324,
1343,
1334,
1708,
3717,
1975,
2864,
1376,
1011,
969,
867,
881,
829,
847,
690,
902,
931,
681,
675,
629,
515,
540,
507,
422,
431,
382,
376,
305,
298,
260,
246,
217,
195,
192,
168,
132,
118,
107,
92,
57,
43,
16,
10,
3,
3,
4,
5,
1,
2,
1,
2,
2,
0,
3,
0,
2,
1,
1,
1,
1,
2,
1,
3,
1,
0,
4,
2,
0,
0,
1,
0,
0,
0,
2,
0,
1,
0,
0,
2,
0,
2,
0,
0,
0,
0,
0,
1,
0,
0,
0,
0,
0,
0,
0,
0,
0,
0,
0,
0,
0,
0,
0,
0,
0,
0,
0,
0,
0,
0,
0,
0,
0,
0,
0,
0,
0,
0,
0,
0,
0,
0,
0,
0,
0,
0,
0,
0,
0,
0,
0,
0,
0,
0,
0,
0,
0,
0,
0,
0,
0,
0,
0,
0,
0,
0,
0,
0,
0,
0,
0,
0,
0,
0,
0,
0,
0,
0,
0,
0,
0,
0,
0,
0,
0,
0,
0,
0,
0,
0,
0,
0,
0,
0,
0,
0,
0,
0,
0,
0,
0,
0,
0,
0,
0,
0,
0,
0,
0,
0,
0,
0,
0,
0,
0,
0,
0,
0,
0,
0,
0,
0,
0,
0,
0,
0,
0,
0,
0,
0,
0,
0,
0,
0,
0,
0,
0,
0,
0,
0,
0,
0,
0,
0,
0,
0,
0,
0,
0,
0,
#ENDOFDATA   :