File: N132962/Quantification/15 keV/Mengason MM2/MMM2 C[7][4].msa
#FORMAT      : EMSA/MAS Spectral Data File
#VERSION     : 1.0
#TITLE       : MMM2 C[7][all]
#DATE        : 29-SEP-2025
#TIME        : 00:01
#OWNER       : Unknown
#NPOINTS     : 4096
#NCOLUMNS    : 1
#XUNITS      : eV
#YUNITS      : counts
#DATATYPE    : Y
#XPERCHAN    : 9.99778
#OFFSET      : 1.69135
#BEAMKV      : 15
#SIGNALTYPE  : EDS
#ELEVANGLE   : 35
#AZIMANGLE   : 0
#LIVETIME    : 240.472
#REALTIME    : 253.803
#PROBECUR    : 1.21151
#TAUWIND     : 0
#TDEADLYR    : 0
#TACTLYR     : 0.045
#TALWIND     : 0.025
#CHOFFSET    : 0.0
#XLABEL      : Energy (eV)
#YLABEL      : Counts
#XPOSITION   : -8.79701
#YPOSITION   : 3.09878
#ZPOSITION   : 34.11879
#EDSDET      : SD
##SPECIMEN   : MMM2 C[7][all]
##D2STDCMP   : C,(C:100.0)
##DET_HASH   : 12273538-fd48-a23f-0a19-f1e6fa85caef
##CALIB_HASH : 6abaa72c-aa41-8738-0be9-f592914732f3
##WORKING    : 15.0 mm
##DET_NAME   : EDAX All
##DET_MODE   : MediumLE
#SPECTRUM    :
24,
1475,
554429,
891,
3597,
1752,
2198,
2521,
2749,
2821,
2791,
2545,
2502,
2324,
1822,
1754,
1627,
1500,
1302,
1278,
1232,
1098,
1026,
965,
922,
827,
799,
771,
702,
714,
612,
625,
632,
581,
517,
496,
454,
465,
438,
440,
440,
363,
361,
351,
324,
324,
311,
260,
260,
275,
250,
216,
251,
199,
219,
207,
210,
168,
169,
167,
154,
155,
151,
122,
122,
126,
110,
129,
93,
108,
94,
90,
94,
77,
84,
68,
51,
59,
55,
47,
41,
56,
45,
35,
39,
30,
33,
31,
29,
32,
32,
16,
26,
15,
17,
21,
8,
13,
9,
4,
7,
9,
3,
8,
3,
2,
2,
2,
0,
0,
0,
0,
0,
0,
0,
0,
0,
0,
0,
0,
0,
0,
0,
0,
0,
0,
0,
0,
0,
0,
0,
0,
0,
0,
0,
0,
0,
0,
0,
0,
0,
0,
0,
0,
0,
0,
0,
0,
0,
0,
0,
0,
0,
0,
0,
0,
0,
0,
0,
0,
0,
0,
0,
0,
0,
0,
0,
0,
0,
0,
0,
0,
0,
0,
0,
0,
0,
0,
0,
0,
0,
0,
0,
0,
0,
0,
0,
0,
0,
0,
0,
0,
0,
0,
0,
0,
0,
0,
0,
0,
0,
0,
0,
0,
0,
0,
0,
0,
0,
0,
0,
0,
0,
0,
0,
0,
0,
0,
0,
0,
0,
0,
0,
0,
0,
0,
0,
0,
0,
0,
0,
0,
0,
0,
0,
0,
0,
0,
0,
0,
0,
0,
0,
0,
0,
0,
0,
0,
0,
0,
0,
0,
0,
0,
0,
0,
0,
0,
0,
0,
0,
0,
0,
0,
0,
0,
0,
0,
0,
0,
0,
0,
0,
0,
0,
0,
0,
0,
0,
0,
0,
0,
0,
0,
0,
0,
0,
0,
0,
0,
0,
0,
0,
0,
#ENDOFDATA   :