File: N132962/Quantification/15 keV/Mengason MM2/MMM2 Willemite[7][4].msa
#FORMAT      : EMSA/MAS Spectral Data File
#VERSION     : 1.0
#TITLE       : MMM2 Willemite[7][all]
#DATE        : 28-SEP-2025
#TIME        : 23:50
#OWNER       : Unknown
#NPOINTS     : 4096
#NCOLUMNS    : 1
#XUNITS      : eV
#YUNITS      : counts
#DATATYPE    : Y
#XPERCHAN    : 9.99778
#OFFSET      : 1.69135
#BEAMKV      : 15
#SIGNALTYPE  : EDS
#ELEVANGLE   : 35
#AZIMANGLE   : 0
#LIVETIME    : 240.279
#REALTIME    : 257.96
#PROBECUR    : 1.21079
#TAUWIND     : 0
#TDEADLYR    : 0
#TACTLYR     : 0.045
#TALWIND     : 0.025
#CHOFFSET    : 0.0
#XLABEL      : Energy (eV)
#YLABEL      : Counts
#XPOSITION   : -11.62873
#YPOSITION   : 2.22014
#ZPOSITION   : 34.11879
#EDSDET      : SD
##SPECIMEN   : MMM2 Willemite[7][all]
##DET_HASH   : 12273538-fd48-a23f-0a19-f1e6fa85caef
##CALIB_HASH : 6abaa72c-aa41-8738-0be9-f592914732f3
##WORKING    : 15.0 mm
##DET_NAME   : EDAX All
##DET_MODE   : MediumLE
#SPECTRUM    :
32,
319,
15507,
9185,
59563,
6612,
14565,
162927,
8023,
4991,
4420,
5472,
27566,
14609,
4126,
4159,
4064,
3850,
3774,
3615,
3660,
3329,
3329,
3230,
3105,
2984,
2853,
2709,
2595,
2498,
2467,
2369,
2277,
2031,
2180,
2014,
1964,
1856,
1881,
1736,
1644,
1781,
7314,
1954,
1459,
1452,
1984,
1523,
1221,
1247,
1115,
1139,
1038,
1004,
975,
922,
905,
815,
845,
830,
881,
8151,
13293,
922,
677,
660,
679,
636,
2401,
1411,
501,
472,
421,
396,
423,
369,
365,
370,
330,
302,
300,
275,
273,
271,
236,
202,
214,
190,
171,
174,
168,
135,
118,
135,
114,
96,
83,
64,
70,
56,
61,
46,
33,
20,
20,
14,
5,
8,
0,
2,
2,
0,
0,
1,
1,
0,
2,
1,
0,
1,
1,
0,
0,
2,
0,
0,
1,
1,
2,
2,
1,
0,
0,
0,
0,
0,
1,
0,
1,
0,
0,
0,
0,
0,
0,
0,
0,
0,
0,
1,
0,
0,
1,
0,
0,
0,
0,
0,
0,
0,
0,
0,
0,
0,
0,
0,
0,
0,
0,
0,
0,
0,
0,
0,
0,
0,
0,
0,
0,
0,
0,
0,
0,
0,
0,
0,
0,
0,
0,
0,
0,
0,
0,
0,
0,
0,
0,
0,
0,
0,
0,
0,
0,
0,
0,
0,
0,
0,
0,
0,
0,
0,
0,
0,
0,
0,
0,
0,
0,
0,
0,
0,
0,
0,
0,
0,
0,
0,
0,
0,
0,
0,
0,
0,
0,
0,
0,
0,
0,
0,
0,
0,
0,
0,
0,
0,
0,
0,
0,
0,
0,
0,
0,
0,
0,
0,
0,
0,
0,
0,
0,
0,
0,
0,
0,
0,
0,
0,
0,
0,
0,
0,
0,
0,
0,
0,
0,
0,
0,
0,
0,
0,
0,
0,
0,
0,
0,
0,
0,
0,
0,
0,
0,
0,
#ENDOFDATA   :