File: N132962/Quantification/15 keV/Mengason MM2/MMM2 Zircon[0][4].msa
#FORMAT      : EMSA/MAS Spectral Data File
#VERSION     : 1.0
#TITLE       : MMM2 Zircon[0][all]
#DATE        : 29-SEP-2025
#TIME        : 01:05
#OWNER       : Unknown
#NPOINTS     : 4096
#NCOLUMNS    : 1
#XUNITS      : eV
#YUNITS      : counts
#DATATYPE    : Y
#XPERCHAN    : 9.99778
#OFFSET      : 1.69135
#BEAMKV      : 15
#SIGNALTYPE  : EDS
#ELEVANGLE   : 35
#AZIMANGLE   : 0
#LIVETIME    : 240.29
#REALTIME    : 257.125
#PROBECUR    : 1.21248
#TAUWIND     : 0
#TDEADLYR    : 0
#TACTLYR     : 0.045
#TALWIND     : 0.025
#CHOFFSET    : 0.0
#XLABEL      : Energy (eV)
#YLABEL      : Counts
#XPOSITION   : -13.66119
#YPOSITION   : 6.99355
#ZPOSITION   : 34.11879
#EDSDET      : SD
##SPECIMEN   : MMM2 Zircon[0][all]
##D2STDCMP   : Zircon,(O:34.9128),(Si:15.3216),(Zr:49.7657),8.0
##DET_HASH   : 12273538-fd48-a23f-0a19-f1e6fa85caef
##CALIB_HASH : 6abaa72c-aa41-8738-0be9-f592914732f3
##WORKING    : 15.0 mm
##DET_NAME   : EDAX All
##DET_MODE   : MediumLE
#SPECTRUM    :
14,
1030,
18366,
6394,
36907,
4591,
5477,
6265,
7036,
7434,
7568,
8172,
48424,
30160,
27000,
93595,
11725,
3689,
4244,
3239,
3146,
3268,
3140,
3021,
2952,
3085,
2760,
3059,
2700,
2665,
2611,
2441,
2390,
2301,
2238,
2090,
2100,
2025,
1882,
1801,
1785,
1741,
1671,
1713,
1502,
1448,
1442,
1368,
1327,
1287,
1241,
1265,
1166,
1203,
1102,
1028,
1155,
1027,
896,
879,
843,
810,
787,
760,
752,
775,
733,
667,
627,
612,
577,
597,
476,
484,
470,
448,
456,
377,
398,
365,
359,
320,
285,
287,
286,
257,
222,
244,
220,
175,
176,
153,
130,
129,
133,
107,
106,
87,
92,
81,
60,
54,
47,
34,
26,
13,
7,
2,
2,
2,
1,
1,
1,
1,
1,
0,
1,
0,
1,
0,
0,
0,
0,
0,
0,
1,
0,
0,
0,
0,
0,
0,
0,
0,
0,
0,
1,
0,
0,
0,
0,
0,
0,
0,
0,
0,
0,
1,
0,
0,
0,
0,
1,
0,
0,
0,
0,
0,
0,
0,
0,
0,
0,
0,
0,
0,
0,
0,
0,
0,
0,
0,
0,
0,
0,
0,
0,
0,
0,
0,
1,
0,
0,
0,
0,
0,
0,
0,
0,
0,
0,
0,
0,
0,
0,
0,
0,
0,
0,
0,
0,
0,
0,
0,
0,
0,
0,
0,
0,
0,
0,
0,
0,
0,
0,
0,
0,
0,
0,
0,
0,
0,
0,
0,
0,
0,
0,
0,
0,
0,
0,
0,
0,
0,
0,
0,
0,
0,
0,
0,
0,
0,
0,
0,
0,
0,
0,
0,
0,
0,
0,
0,
0,
0,
0,
0,
0,
0,
0,
0,
0,
0,
0,
0,
0,
0,
0,
0,
0,
0,
0,
0,
0,
0,
0,
0,
0,
0,
0,
0,
0,
0,
0,
0,
0,
0,
0,
0,
0,
0,
0,
0,
0,
0,
#ENDOFDATA   :