File: N132962/Quantification/15 keV/Mengason MM2/MMM2 SrTiO3[2][4].msa
#FORMAT      : EMSA/MAS Spectral Data File
#VERSION     : 1.0
#TITLE       : MMM2 SrTiO3[2][all]
#DATE        : 29-SEP-2025
#TIME        : 00:15
#OWNER       : Unknown
#NPOINTS     : 4096
#NCOLUMNS    : 1
#XUNITS      : eV
#YUNITS      : counts
#DATATYPE    : Y
#XPERCHAN    : 9.99778
#OFFSET      : 1.69135
#BEAMKV      : 15
#SIGNALTYPE  : EDS
#ELEVANGLE   : 35
#AZIMANGLE   : 0
#LIVETIME    : 241.57
#REALTIME    : 258.021
#PROBECUR    : 1.21151
#TAUWIND     : 0
#TDEADLYR    : 0
#TACTLYR     : 0.045
#TALWIND     : 0.025
#CHOFFSET    : 0.0
#XLABEL      : Energy (eV)
#YLABEL      : Counts
#XPOSITION   : -15.19698
#YPOSITION   : 4.48657
#ZPOSITION   : 34.11879
#EDSDET      : SD
##SPECIMEN   : MMM2 SrTiO3[2][all]
##D2STDCMP   : SrTiO3,(O:26.1592),(Ti:26.0877),(Sr:47.7532)
##DET_HASH   : 12273538-fd48-a23f-0a19-f1e6fa85caef
##CALIB_HASH : 6abaa72c-aa41-8738-0be9-f592914732f3
##WORKING    : 15.0 mm
##DET_NAME   : EDAX All
##DET_MODE   : MediumLE
#SPECTRUM    :
18,
674,
17277,
14094,
24696,
4649,
5637,
6152,
6719,
7313,
7660,
11627,
11302,
200508,
16075,
4278,
4333,
4065,
3743,
3844,
4013,
3616,
3552,
3568,
3388,
3334,
3408,
3173,
3048,
2799,
2818,
3340,
54189,
7977,
2713,
8793,
3203,
2079,
2006,
1910,
1823,
1748,
1761,
1712,
1652,
1716,
1599,
1525,
1461,
1384,
1282,
1219,
1206,
1215,
1260,
1124,
1110,
1014,
1045,
993,
927,
915,
838,
825,
812,
737,
695,
737,
707,
630,
615,
587,
573,
506,
515,
538,
476,
465,
460,
402,
370,
360,
322,
325,
319,
256,
259,
271,
202,
203,
181,
175,
187,
126,
115,
135,
103,
94,
100,
75,
60,
58,
50,
42,
31,
14,
11,
4,
2,
0,
1,
3,
1,
1,
0,
1,
0,
1,
0,
0,
0,
1,
0,
1,
2,
0,
0,
1,
0,
0,
0,
0,
1,
0,
0,
0,
0,
0,
1,
0,
0,
0,
0,
0,
0,
0,
0,
0,
0,
0,
0,
0,
0,
0,
0,
0,
0,
0,
0,
0,
0,
0,
0,
0,
0,
0,
0,
0,
0,
1,
0,
0,
0,
0,
0,
0,
0,
0,
0,
0,
0,
0,
0,
0,
0,
0,
0,
0,
0,
0,
0,
0,
0,
0,
0,
0,
0,
0,
0,
0,
0,
0,
0,
0,
0,
0,
0,
0,
0,
0,
0,
0,
0,
0,
0,
0,
0,
0,
0,
0,
0,
0,
0,
0,
0,
0,
0,
0,
0,
0,
0,
0,
0,
0,
0,
0,
0,
0,
0,
0,
0,
0,
0,
0,
0,
0,
0,
0,
0,
0,
0,
0,
0,
0,
0,
0,
0,
0,
0,
0,
0,
0,
0,
0,
0,
0,
0,
0,
0,
0,
0,
0,
0,
0,
0,
0,
0,
0,
0,
0,
0,
0,
0,
0,
0,
0,
0,
0,
0,
0,
0,
0,
0,
0,
#ENDOFDATA   :