File: N132962/Quantification/15 keV/Mengason MM2/MMM2 Zircon-2[1][4].msa
#FORMAT      : EMSA/MAS Spectral Data File
#VERSION     : 1.0
#TITLE       : MMM2 Zircon-2[1][all]
#DATE        : 29-SEP-2025
#TIME        : 01:17
#OWNER       : Unknown
#NPOINTS     : 4096
#NCOLUMNS    : 1
#XUNITS      : eV
#YUNITS      : counts
#DATATYPE    : Y
#XPERCHAN    : 9.99778
#OFFSET      : 1.69135
#BEAMKV      : 15
#SIGNALTYPE  : EDS
#ELEVANGLE   : 35
#AZIMANGLE   : 0
#LIVETIME    : 240.265
#REALTIME    : 257.134
#PROBECUR    : 1.21248
#TAUWIND     : 0
#TDEADLYR    : 0
#TACTLYR     : 0.045
#TALWIND     : 0.025
#CHOFFSET    : 0.0
#XLABEL      : Energy (eV)
#YLABEL      : Counts
#XPOSITION   : -14.67784
#YPOSITION   : 7.58205
#ZPOSITION   : 34.11879
#EDSDET      : SD
##SPECIMEN   : MMM2 Zircon-2[1][all]
##DET_HASH   : 12273538-fd48-a23f-0a19-f1e6fa85caef
##CALIB_HASH : 6abaa72c-aa41-8738-0be9-f592914732f3
##WORKING    : 15.0 mm
##DET_NAME   : EDAX All
##DET_MODE   : MediumLE
#SPECTRUM    :
33,
1025,
17954,
6428,
37141,
4581,
5547,
6432,
6790,
7377,
7690,
8171,
48420,
30808,
26786,
94089,
11731,
3625,
4278,
3347,
3211,
3137,
3099,
2986,
2907,
3020,
2845,
2993,
2813,
2581,
2560,
2358,
2423,
2209,
2230,
2152,
2125,
2036,
1907,
1896,
1785,
1666,
1630,
1601,
1604,
1522,
1547,
1499,
1362,
1311,
1300,
1249,
1129,
1162,
1141,
1001,
1064,
1024,
914,
956,
881,
805,
788,
776,
795,
720,
706,
708,
652,
573,
559,
554,
519,
491,
439,
486,
451,
393,
366,
367,
345,
334,
303,
311,
281,
288,
250,
220,
202,
190,
170,
162,
119,
135,
122,
107,
88,
85,
59,
59,
60,
56,
40,
33,
27,
15,
4,
4,
1,
1,
1,
1,
1,
0,
1,
0,
0,
0,
0,
0,
0,
1,
0,
0,
2,
0,
1,
1,
0,
0,
1,
0,
0,
0,
1,
0,
0,
0,
0,
0,
0,
0,
0,
0,
0,
1,
0,
0,
0,
0,
0,
0,
0,
0,
0,
1,
0,
0,
0,
0,
0,
0,
0,
0,
0,
0,
0,
0,
0,
0,
0,
0,
0,
0,
0,
0,
0,
0,
0,
0,
0,
0,
0,
0,
0,
0,
0,
0,
0,
0,
0,
0,
0,
0,
0,
0,
0,
0,
0,
0,
0,
0,
0,
0,
0,
0,
0,
0,
0,
0,
0,
0,
0,
0,
0,
0,
0,
0,
0,
0,
0,
0,
0,
0,
0,
0,
0,
0,
0,
0,
0,
0,
0,
0,
0,
0,
0,
0,
0,
0,
0,
0,
0,
0,
0,
0,
0,
0,
0,
0,
0,
0,
0,
0,
0,
0,
0,
0,
0,
0,
0,
0,
0,
0,
0,
0,
0,
0,
0,
0,
0,
0,
0,
0,
0,
0,
0,
0,
0,
0,
0,
0,
0,
0,
0,
0,
0,
0,
0,
0,
0,
0,
0,
0,
#ENDOFDATA   :