File: N132962/Quantification/15 keV/Mengason MM2/MMM2 Rhodonite[5][4].msa
#FORMAT      : EMSA/MAS Spectral Data File
#VERSION     : 1.0
#TITLE       : MMM2 Rhodonite[5][all]
#DATE        : 28-SEP-2025
#TIME        : 23:27
#OWNER       : Unknown
#NPOINTS     : 4096
#NCOLUMNS    : 1
#XUNITS      : eV
#YUNITS      : counts
#DATATYPE    : Y
#XPERCHAN    : 9.99778
#OFFSET      : 1.69135
#BEAMKV      : 15
#SIGNALTYPE  : EDS
#ELEVANGLE   : 35
#AZIMANGLE   : 0
#LIVETIME    : 240.217
#REALTIME    : 256.066
#PROBECUR    : 1.21079
#TAUWIND     : 0
#TDEADLYR    : 0
#TACTLYR     : 0.045
#TALWIND     : 0.025
#CHOFFSET    : 0.0
#XLABEL      : Energy (eV)
#YLABEL      : Counts
#XPOSITION   : -16.69999
#YPOSITION   : 1.80557
#ZPOSITION   : 34.11879
#EDSDET      : SD
##SPECIMEN   : MMM2 Rhodonite[5][all]
##DET_HASH   : 12273538-fd48-a23f-0a19-f1e6fa85caef
##CALIB_HASH : 6abaa72c-aa41-8738-0be9-f592914732f3
##WORKING    : 15.0 mm
##DET_NAME   : EDAX All
##DET_MODE   : MediumLE
#SPECTRUM    :
24,
272,
14565,
10510,
85905,
8766,
3301,
3880,
4482,
12396,
5165,
5597,
52528,
25355,
3575,
3406,
3845,
3286,
3132,
2977,
2936,
2783,
2667,
2615,
2472,
2503,
8200,
4006,
2319,
2852,
2051,
1798,
1679,
1667,
1594,
1570,
1488,
1445,
1342,
1360,
1288,
2302,
40377,
4341,
1102,
1992,
7532,
2355,
859,
823,
1109,
918,
721,
772,
710,
701,
619,
639,
580,
584,
544,
589,
503,
472,
493,
445,
414,
415,
410,
396,
357,
347,
323,
314,
285,
287,
292,
244,
238,
258,
224,
206,
194,
174,
178,
169,
131,
115,
111,
134,
116,
94,
97,
84,
69,
74,
74,
64,
39,
37,
33,
25,
23,
13,
14,
8,
6,
1,
0,
0,
0,
1,
0,
0,
1,
0,
2,
1,
0,
1,
1,
0,
2,
1,
1,
0,
1,
0,
0,
0,
0,
0,
1,
0,
0,
1,
0,
0,
0,
0,
0,
0,
0,
0,
0,
0,
0,
0,
0,
0,
0,
0,
0,
0,
0,
0,
0,
0,
0,
0,
0,
0,
0,
0,
0,
0,
0,
0,
0,
0,
0,
0,
0,
0,
0,
0,
0,
0,
0,
0,
0,
0,
0,
0,
0,
0,
0,
0,
0,
0,
0,
0,
0,
0,
0,
0,
0,
0,
0,
0,
0,
0,
0,
0,
0,
0,
0,
0,
0,
0,
0,
0,
0,
0,
0,
0,
0,
0,
0,
0,
0,
0,
0,
0,
0,
0,
0,
0,
0,
0,
0,
0,
0,
0,
0,
0,
0,
0,
0,
0,
0,
0,
0,
0,
0,
0,
0,
0,
0,
0,
0,
0,
0,
0,
0,
0,
0,
0,
0,
0,
0,
0,
0,
0,
0,
0,
0,
0,
0,
0,
0,
0,
0,
0,
0,
0,
0,
0,
0,
0,
0,
0,
0,
0,
0,
0,
0,
0,
0,
0,
0,
0,
0,
0,
#ENDOFDATA   :