File: N132962/Quantification/15 keV/Mengason MM2/MMM2 Zircon-2[7][4].msa
#FORMAT      : EMSA/MAS Spectral Data File
#VERSION     : 1.0
#TITLE       : MMM2 Zircon-2[7][all]
#DATE        : 29-SEP-2025
#TIME        : 01:24
#OWNER       : Unknown
#NPOINTS     : 4096
#NCOLUMNS    : 1
#XUNITS      : eV
#YUNITS      : counts
#DATATYPE    : Y
#XPERCHAN    : 9.99778
#OFFSET      : 1.69135
#BEAMKV      : 15
#SIGNALTYPE  : EDS
#ELEVANGLE   : 35
#AZIMANGLE   : 0
#LIVETIME    : 240.198
#REALTIME    : 256.941
#PROBECUR    : 1.21248
#TAUWIND     : 0
#TDEADLYR    : 0
#TACTLYR     : 0.045
#TALWIND     : 0.025
#CHOFFSET    : 0.0
#XLABEL      : Energy (eV)
#YLABEL      : Counts
#XPOSITION   : -14.65694
#YPOSITION   : 7.62219
#ZPOSITION   : 34.11879
#EDSDET      : SD
##SPECIMEN   : MMM2 Zircon-2[7][all]
##DET_HASH   : 12273538-fd48-a23f-0a19-f1e6fa85caef
##CALIB_HASH : 6abaa72c-aa41-8738-0be9-f592914732f3
##WORKING    : 15.0 mm
##DET_NAME   : EDAX All
##DET_MODE   : MediumLE
#SPECTRUM    :
21,
1050,
17889,
6455,
37362,
4730,
5424,
6201,
6883,
7398,
7720,
8339,
47866,
30137,
25880,
91858,
11418,
3536,
4313,
3217,
3098,
3096,
3129,
2896,
2967,
3128,
2896,
3118,
2730,
2660,
2511,
2506,
2324,
2278,
2239,
2104,
2005,
2042,
1873,
1878,
1700,
1765,
1639,
1563,
1518,
1572,
1661,
1408,
1306,
1287,
1260,
1181,
1161,
1203,
989,
1035,
1055,
969,
890,
872,
814,
817,
751,
734,
757,
698,
642,
654,
635,
599,
598,
503,
527,
476,
463,
480,
432,
427,
380,
370,
344,
331,
296,
267,
260,
258,
222,
213,
208,
208,
168,
170,
127,
142,
118,
104,
95,
87,
86,
67,
51,
44,
33,
40,
29,
19,
9,
6,
1,
0,
2,
0,
2,
0,
2,
0,
0,
0,
0,
1,
1,
1,
0,
0,
0,
0,
0,
0,
2,
0,
0,
1,
0,
2,
1,
0,
0,
1,
0,
0,
0,
0,
1,
0,
0,
0,
0,
0,
0,
1,
0,
0,
0,
0,
0,
0,
0,
0,
0,
0,
1,
0,
0,
0,
0,
0,
0,
0,
0,
0,
0,
0,
0,
0,
0,
0,
0,
0,
0,
0,
0,
0,
0,
0,
0,
0,
0,
0,
0,
0,
0,
0,
0,
0,
0,
0,
0,
0,
0,
0,
0,
0,
0,
0,
0,
0,
0,
0,
0,
0,
0,
0,
0,
0,
0,
0,
0,
0,
0,
0,
0,
0,
0,
0,
0,
0,
0,
0,
0,
0,
0,
0,
0,
0,
0,
0,
0,
0,
0,
0,
0,
0,
0,
0,
0,
0,
0,
0,
0,
0,
0,
0,
0,
0,
0,
0,
0,
0,
0,
0,
0,
0,
0,
0,
0,
0,
0,
0,
0,
0,
0,
0,
0,
0,
0,
0,
0,
0,
0,
0,
0,
0,
0,
0,
0,
0,
0,
0,
0,
0,
0,
0,
0,
0,
#ENDOFDATA   :