File: N132962/Quantification/15 keV/Mengason MM2/MMM2 Uvarovite[7][4].msa
#FORMAT      : EMSA/MAS Spectral Data File
#VERSION     : 1.0
#TITLE       : MMM2 Uvarovite[7][all]
#DATE        : 28-SEP-2025
#TIME        : 22:17
#OWNER       : Unknown
#NPOINTS     : 4096
#NCOLUMNS    : 1
#XUNITS      : eV
#YUNITS      : counts
#DATATYPE    : Y
#XPERCHAN    : 9.99778
#OFFSET      : 1.69135
#BEAMKV      : 15
#SIGNALTYPE  : EDS
#ELEVANGLE   : 35
#AZIMANGLE   : 0
#LIVETIME    : 240.152
#REALTIME    : 254.317
#PROBECUR    : 1.21223
#TAUWIND     : 0
#TDEADLYR    : 0
#TACTLYR     : 0.045
#TALWIND     : 0.025
#CHOFFSET    : 0.0
#XLABEL      : Energy (eV)
#YLABEL      : Counts
#XPOSITION   : -9.31593
#YPOSITION   : -0.11585
#ZPOSITION   : 34.11879
#EDSDET      : SD
##SPECIMEN   : MMM2 Uvarovite[7][all]
##DET_HASH   : 12273538-fd48-a23f-0a19-f1e6fa85caef
##CALIB_HASH : 6abaa72c-aa41-8738-0be9-f592914732f3
##WORKING    : 15.0 mm
##DET_NAME   : EDAX All
##DET_MODE   : MediumLE
#SPECTRUM    :
31,
294,
19280,
6455,
48033,
3876,
3522,
3956,
4572,
5204,
6856,
13710,
42217,
20768,
4336,
3336,
3616,
3213,
3042,
2871,
2821,
2657,
2579,
2484,
2259,
2757,
45114,
15712,
3664,
8219,
1688,
1513,
2951,
1644,
1437,
1739,
1403,
1310,
5647,
13261,
1207,
1127,
2393,
1954,
893,
1106,
1599,
849,
804,
806,
809,
746,
691,
690,
632,
616,
565,
539,
512,
537,
467,
470,
424,
439,
425,
426,
372,
367,
335,
330,
320,
288,
294,
280,
268,
257,
248,
240,
243,
217,
209,
186,
166,
156,
149,
132,
100,
113,
99,
120,
94,
81,
70,
64,
67,
63,
52,
34,
44,
34,
27,
15,
21,
13,
7,
7,
7,
1,
1,
0,
0,
1,
0,
0,
0,
0,
0,
0,
1,
1,
0,
1,
0,
1,
0,
1,
0,
0,
0,
0,
0,
0,
0,
0,
0,
0,
0,
0,
0,
0,
0,
0,
0,
0,
1,
0,
0,
0,
0,
0,
0,
0,
0,
0,
0,
0,
0,
0,
0,
0,
0,
0,
0,
0,
0,
0,
0,
0,
0,
0,
0,
0,
0,
0,
0,
0,
0,
0,
0,
0,
0,
0,
0,
0,
0,
0,
0,
0,
0,
0,
0,
0,
0,
0,
0,
0,
0,
0,
0,
0,
0,
0,
0,
0,
0,
0,
0,
0,
0,
0,
0,
0,
0,
0,
0,
0,
0,
0,
0,
0,
0,
0,
0,
0,
0,
0,
0,
0,
0,
0,
0,
0,
0,
0,
0,
0,
0,
0,
0,
0,
0,
0,
0,
0,
0,
0,
0,
0,
0,
0,
0,
0,
0,
0,
0,
0,
0,
0,
0,
0,
0,
0,
0,
0,
0,
0,
0,
0,
0,
0,
0,
0,
0,
0,
0,
0,
0,
0,
0,
0,
0,
0,
0,
0,
0,
0,
0,
0,
0,
0,
0,
0,
0,
0,
#ENDOFDATA   :