File: N132962/Quantification/15 keV/Mengason MM2/MMM2 Pentlandite[3][4].msa
#FORMAT      : EMSA/MAS Spectral Data File
#VERSION     : 1.0
#TITLE       : MMM2 Pentlandite[3][all]
#DATE        : 28-SEP-2025
#TIME        : 21:41
#OWNER       : Unknown
#NPOINTS     : 4096
#NCOLUMNS    : 1
#XUNITS      : eV
#YUNITS      : counts
#DATATYPE    : Y
#XPERCHAN    : 9.99778
#OFFSET      : 1.69135
#BEAMKV      : 15
#SIGNALTYPE  : EDS
#ELEVANGLE   : 35
#AZIMANGLE   : 0
#LIVETIME    : 240.193
#REALTIME    : 257.764
#PROBECUR    : 1.21217
#TAUWIND     : 0
#TDEADLYR    : 0
#TACTLYR     : 0.045
#TALWIND     : 0.025
#CHOFFSET    : 0.0
#XLABEL      : Energy (eV)
#YLABEL      : Counts
#XPOSITION   : -15.88893
#YPOSITION   : -2.34929
#ZPOSITION   : 34.11879
#EDSDET      : SD
##SPECIMEN   : MMM2 Pentlandite[3][all]
##DET_HASH   : 12273538-fd48-a23f-0a19-f1e6fa85caef
##CALIB_HASH : 6abaa72c-aa41-8738-0be9-f592914732f3
##WORKING    : 15.0 mm
##DET_NAME   : EDAX All
##DET_MODE   : MediumLE
#SPECTRUM    :
27,
631,
15589,
4860,
16644,
67040,
87415,
4732,
4636,
5372,
5684,
5983,
6324,
6400,
5721,
5832,
56373,
43524,
9929,
3919,
3812,
3827,
3765,
3551,
3351,
3154,
3146,
3127,
2949,
2903,
2749,
2532,
2527,
2817,
2476,
2305,
2201,
2115,
2010,
2045,
1921,
1922,
1727,
1719,
1716,
9684,
27419,
1726,
1458,
1756,
4618,
2835,
1542,
17344,
8729,
1141,
1068,
1067,
1264,
3750,
1159,
808,
833,
752,
680,
674,
688,
652,
649,
611,
617,
550,
534,
486,
467,
460,
463,
387,
365,
356,
376,
341,
306,
278,
304,
269,
239,
229,
196,
209,
205,
162,
174,
158,
114,
114,
117,
80,
71,
65,
71,
45,
47,
47,
30,
15,
11,
7,
0,
3,
1,
1,
4,
1,
1,
0,
1,
2,
1,
1,
0,
0,
2,
1,
0,
0,
2,
1,
1,
0,
0,
1,
0,
0,
0,
0,
1,
0,
1,
0,
0,
1,
0,
0,
0,
0,
0,
0,
0,
0,
0,
0,
0,
0,
0,
0,
0,
0,
0,
0,
0,
0,
0,
0,
0,
0,
0,
0,
0,
0,
0,
0,
0,
0,
0,
0,
0,
0,
0,
0,
0,
0,
0,
0,
0,
0,
0,
0,
0,
0,
0,
0,
0,
0,
0,
0,
0,
0,
0,
0,
0,
0,
0,
0,
0,
0,
0,
0,
0,
0,
0,
0,
0,
0,
0,
0,
0,
0,
0,
0,
0,
0,
0,
0,
0,
0,
0,
0,
0,
0,
0,
0,
0,
0,
0,
0,
0,
0,
0,
0,
0,
0,
0,
0,
0,
0,
0,
0,
0,
0,
0,
0,
0,
0,
0,
0,
0,
0,
0,
0,
0,
0,
0,
0,
0,
0,
0,
0,
0,
0,
0,
0,
0,
0,
0,
0,
0,
0,
0,
0,
0,
0,
0,
0,
0,
0,
0,
0,
0,
0,
0,
0,
0,
0,
#ENDOFDATA   :