File: N132962/Quantification/15 keV/Mengason MM2/MMM2 Scheelite[6][4].msa
#FORMAT      : EMSA/MAS Spectral Data File
#VERSION     : 1.0
#TITLE       : MMM2 Scheelite[6][all]
#DATE        : 29-SEP-2025
#TIME        : 00:31
#OWNER       : Unknown
#NPOINTS     : 4096
#NCOLUMNS    : 1
#XUNITS      : eV
#YUNITS      : counts
#DATATYPE    : Y
#XPERCHAN    : 9.99778
#OFFSET      : 1.69135
#BEAMKV      : 15
#SIGNALTYPE  : EDS
#ELEVANGLE   : 35
#AZIMANGLE   : 0
#LIVETIME    : 240.247
#REALTIME    : 260.586
#PROBECUR    : 1.21186
#TAUWIND     : 0
#TDEADLYR    : 0
#TACTLYR     : 0.045
#TALWIND     : 0.025
#CHOFFSET    : 0.0
#XLABEL      : Energy (eV)
#YLABEL      : Counts
#XPOSITION   : -17.52038
#YPOSITION   : 4.44043
#ZPOSITION   : 34.11879
#EDSDET      : SD
##SPECIMEN   : MMM2 Scheelite[6][all]
##DET_HASH   : 12273538-fd48-a23f-0a19-f1e6fa85caef
##CALIB_HASH : 6abaa72c-aa41-8738-0be9-f592914732f3
##WORKING    : 15.0 mm
##DET_NAME   : EDAX All
##DET_MODE   : MediumLE
#SPECTRUM    :
17,
702,
23560,
6807,
28739,
6888,
7653,
8526,
9187,
10134,
22095,
10387,
21394,
173924,
7689,
6726,
6001,
6037,
5053,
4948,
5049,
4874,
4874,
4769,
4813,
5050,
30145,
12473,
5363,
8021,
3967,
3864,
3772,
3804,
3579,
3475,
3476,
3303,
3290,
3271,
3060,
3021,
2921,
2784,
2745,
2615,
2769,
2470,
2378,
2373,
2250,
2219,
2179,
2448,
2062,
1925,
1817,
1878,
1765,
3463,
11244,
2367,
1643,
1456,
1450,
1392,
1303,
1243,
1725,
3632,
1960,
2814,
1441,
1051,
908,
840,
818,
813,
751,
741,
943,
999,
687,
686,
568,
527,
574,
468,
404,
406,
347,
383,
367,
305,
296,
263,
212,
203,
182,
164,
150,
134,
95,
70,
58,
50,
29,
12,
5,
5,
1,
2,
6,
2,
4,
1,
1,
3,
1,
1,
3,
4,
4,
0,
1,
0,
1,
2,
2,
4,
1,
2,
1,
0,
0,
0,
3,
1,
0,
2,
0,
0,
2,
0,
0,
0,
1,
1,
0,
0,
0,
0,
0,
0,
0,
0,
0,
0,
0,
0,
1,
0,
0,
0,
0,
0,
0,
0,
0,
0,
0,
0,
0,
0,
0,
0,
0,
0,
0,
0,
0,
0,
0,
0,
0,
0,
0,
0,
0,
0,
0,
0,
0,
0,
0,
0,
0,
0,
0,
0,
0,
0,
0,
0,
0,
0,
0,
0,
0,
0,
0,
0,
0,
0,
0,
0,
0,
0,
0,
0,
0,
0,
0,
0,
0,
0,
0,
0,
0,
0,
0,
0,
0,
0,
0,
0,
0,
0,
0,
0,
0,
0,
0,
0,
0,
0,
0,
0,
0,
0,
0,
0,
0,
0,
0,
0,
0,
0,
0,
0,
0,
0,
0,
0,
0,
0,
0,
0,
0,
0,
0,
0,
0,
0,
0,
0,
0,
0,
0,
0,
0,
0,
0,
0,
0,
0,
0,
0,
0,
0,
0,
0,
0,
0,
#ENDOFDATA   :