File: N132962/Quantification/15 keV/Mengason MM2/MMM2 Rhodonite[7][4].msa
#FORMAT      : EMSA/MAS Spectral Data File
#VERSION     : 1.0
#TITLE       : MMM2 Rhodonite[7][all]
#DATE        : 28-SEP-2025
#TIME        : 23:29
#OWNER       : Unknown
#NPOINTS     : 4096
#NCOLUMNS    : 1
#XUNITS      : eV
#YUNITS      : counts
#DATATYPE    : Y
#XPERCHAN    : 9.99778
#OFFSET      : 1.69135
#BEAMKV      : 15
#SIGNALTYPE  : EDS
#ELEVANGLE   : 35
#AZIMANGLE   : 0
#LIVETIME    : 240.251
#REALTIME    : 256.1
#PROBECUR    : 1.21079
#TAUWIND     : 0
#TDEADLYR    : 0
#TACTLYR     : 0.045
#TALWIND     : 0.025
#CHOFFSET    : 0.0
#XLABEL      : Energy (eV)
#YLABEL      : Counts
#XPOSITION   : -16.67437
#YPOSITION   : 1.7981
#ZPOSITION   : 34.11879
#EDSDET      : SD
##SPECIMEN   : MMM2 Rhodonite[7][all]
##DET_HASH   : 12273538-fd48-a23f-0a19-f1e6fa85caef
##CALIB_HASH : 6abaa72c-aa41-8738-0be9-f592914732f3
##WORKING    : 15.0 mm
##DET_NAME   : EDAX All
##DET_MODE   : MediumLE
#SPECTRUM    :
25,
291,
14447,
10653,
85280,
8729,
3248,
3983,
4385,
12189,
5137,
5550,
52408,
25519,
3573,
3401,
3926,
3352,
3219,
2982,
2914,
2742,
2691,
2606,
2453,
2511,
8390,
4142,
2347,
2874,
2019,
1795,
1759,
1600,
1587,
1584,
1405,
1375,
1398,
1319,
1290,
2354,
40219,
4303,
1146,
2023,
7622,
2314,
925,
837,
1135,
961,
767,
721,
738,
682,
616,
585,
621,
581,
538,
535,
470,
445,
458,
404,
444,
397,
385,
393,
344,
337,
313,
331,
297,
272,
274,
246,
242,
207,
237,
206,
210,
182,
158,
132,
148,
148,
146,
119,
109,
84,
100,
89,
74,
61,
66,
58,
39,
40,
31,
29,
17,
17,
12,
7,
5,
0,
2,
1,
0,
2,
1,
0,
0,
2,
0,
0,
2,
1,
0,
1,
0,
1,
0,
0,
0,
0,
0,
0,
1,
1,
0,
0,
0,
0,
0,
1,
0,
0,
0,
0,
0,
1,
1,
0,
0,
0,
0,
0,
0,
0,
0,
0,
0,
0,
0,
0,
0,
0,
0,
0,
0,
0,
0,
0,
0,
0,
0,
0,
0,
0,
0,
0,
0,
0,
0,
0,
0,
0,
0,
0,
0,
0,
0,
0,
0,
0,
0,
0,
0,
0,
0,
0,
0,
0,
0,
0,
0,
0,
0,
0,
0,
0,
0,
0,
0,
0,
0,
0,
0,
0,
0,
0,
0,
0,
0,
0,
0,
0,
0,
0,
0,
0,
0,
0,
0,
0,
0,
0,
0,
0,
0,
0,
0,
0,
0,
0,
0,
0,
0,
0,
0,
0,
0,
0,
0,
0,
0,
0,
0,
0,
0,
0,
0,
0,
0,
0,
0,
0,
0,
0,
0,
0,
0,
0,
0,
0,
0,
0,
0,
0,
0,
0,
0,
0,
0,
0,
0,
0,
0,
0,
0,
0,
0,
0,
0,
0,
0,
0,
0,
0,
0,
0,
#ENDOFDATA   :