File: N132962/Quantification/15 keV/Mengason MM2/MMM2 Zircon[6][4].msa
#FORMAT      : EMSA/MAS Spectral Data File
#VERSION     : 1.0
#TITLE       : MMM2 Zircon[6][all]
#DATE        : 29-SEP-2025
#TIME        : 01:12
#OWNER       : Unknown
#NPOINTS     : 4096
#NCOLUMNS    : 1
#XUNITS      : eV
#YUNITS      : counts
#DATATYPE    : Y
#XPERCHAN    : 9.99778
#OFFSET      : 1.69135
#BEAMKV      : 15
#SIGNALTYPE  : EDS
#ELEVANGLE   : 35
#AZIMANGLE   : 0
#LIVETIME    : 240.3727
#REALTIME    : 257.189
#PROBECUR    : 1.21248
#TAUWIND     : 0
#TDEADLYR    : 0
#TACTLYR     : 0.045
#TALWIND     : 0.025
#CHOFFSET    : 0.0
#XLABEL      : Energy (eV)
#YLABEL      : Counts
#XPOSITION   : -13.65682
#YPOSITION   : 6.95009
#ZPOSITION   : 34.11879
#EDSDET      : SD
##SPECIMEN   : MMM2 Zircon[6][all]
##D2STDCMP   : Zircon,(O:34.9128),(Si:15.3216),(Zr:49.7657),8.0
##DET_HASH   : 12273538-fd48-a23f-0a19-f1e6fa85caef
##CALIB_HASH : 6abaa72c-aa41-8738-0be9-f592914732f3
##WORKING    : 15.0 mm
##DET_NAME   : EDAX All
##DET_MODE   : MediumLE
#SPECTRUM    :
28,
1050,
18285,
6455,
36589,
4741,
5364,
6144,
6771,
7375,
7720,
8026,
48550,
30459,
26596,
93207,
11674,
3533,
4335,
3328,
3286,
3148,
3169,
2973,
3021,
2979,
2901,
2999,
2815,
2702,
2598,
2512,
2319,
2211,
2165,
2140,
2042,
2076,
1879,
1874,
1854,
1642,
1735,
1626,
1528,
1505,
1471,
1386,
1386,
1308,
1243,
1224,
1117,
1084,
1133,
1071,
1105,
987,
892,
868,
844,
814,
802,
792,
772,
724,
687,
667,
673,
606,
573,
564,
543,
499,
471,
479,
453,
409,
410,
371,
337,
337,
281,
297,
273,
257,
243,
179,
210,
174,
176,
134,
138,
132,
110,
99,
102,
94,
77,
67,
59,
45,
41,
28,
18,
10,
9,
2,
1,
1,
0,
0,
1,
1,
1,
1,
1,
1,
0,
0,
0,
2,
0,
0,
0,
0,
0,
1,
0,
0,
0,
0,
2,
0,
0,
0,
0,
0,
0,
0,
0,
0,
0,
0,
0,
1,
0,
0,
0,
0,
0,
0,
0,
0,
0,
0,
0,
0,
0,
0,
0,
0,
0,
0,
0,
0,
0,
0,
0,
0,
0,
0,
0,
0,
0,
0,
0,
0,
0,
0,
0,
0,
0,
0,
0,
0,
0,
0,
0,
0,
0,
0,
0,
0,
0,
0,
0,
0,
0,
0,
0,
0,
0,
0,
0,
0,
0,
0,
0,
0,
0,
0,
0,
0,
0,
0,
0,
0,
0,
0,
0,
0,
0,
0,
0,
0,
0,
0,
0,
0,
0,
0,
0,
0,
0,
0,
0,
0,
0,
0,
0,
0,
0,
0,
0,
0,
0,
0,
0,
0,
0,
0,
0,
0,
0,
0,
0,
0,
0,
0,
0,
0,
0,
0,
0,
0,
0,
0,
0,
0,
0,
0,
0,
0,
0,
0,
0,
0,
0,
0,
0,
0,
0,
0,
0,
0,
0,
0,
0,
0,
0,
0,
0,
0,
#ENDOFDATA   :