File: N132962/Quantification/15 keV/Mengason MM2/MMM2 Tugtupite[6][4].msa
#FORMAT      : EMSA/MAS Spectral Data File
#VERSION     : 1.0
#TITLE       : MMM2 Tugtupite[6][all]
#DATE        : 29-SEP-2025
#TIME        : 01:02
#OWNER       : Unknown
#NPOINTS     : 4096
#NCOLUMNS    : 1
#XUNITS      : eV
#YUNITS      : counts
#DATATYPE    : Y
#XPERCHAN    : 9.99778
#OFFSET      : 1.69135
#BEAMKV      : 15
#SIGNALTYPE  : EDS
#ELEVANGLE   : 35
#AZIMANGLE   : 0
#LIVETIME    : 240.336
#REALTIME    : 257.201
#PROBECUR    : 1.21248
#TAUWIND     : 0
#TDEADLYR    : 0
#TACTLYR     : 0.045
#TALWIND     : 0.025
#CHOFFSET    : 0.0
#XLABEL      : Energy (eV)
#YLABEL      : Counts
#XPOSITION   : -17.27483
#YPOSITION   : 6.77591
#ZPOSITION   : 34.11879
#EDSDET      : SD
##SPECIMEN   : MMM2 Tugtupite[6][all]
##DET_HASH   : 12273538-fd48-a23f-0a19-f1e6fa85caef
##CALIB_HASH : 6abaa72c-aa41-8738-0be9-f592914732f3
##WORKING    : 15.0 mm
##DET_NAME   : EDAX All
##DET_MODE   : MediumLE
#SPECTRUM    :
27,
318,
11372,
8489,
72871,
3299,
4736,
36736,
10587,
3984,
6947,
19946,
54542,
25623,
2648,
2611,
2947,
2442,
4979,
25132,
5273,
2041,
1921,
1983,
1720,
1830,
1577,
1423,
1498,
1376,
1333,
1310,
1225,
1141,
1101,
1101,
1061,
1007,
931,
881,
829,
848,
804,
727,
699,
716,
657,
633,
626,
559,
533,
610,
550,
446,
491,
496,
428,
414,
408,
378,
371,
383,
357,
304,
280,
288,
298,
293,
245,
238,
233,
226,
218,
235,
185,
165,
187,
160,
146,
142,
157,
139,
96,
108,
99,
91,
72,
61,
68,
84,
67,
53,
59,
54,
34,
41,
30,
24,
25,
27,
17,
15,
13,
9,
8,
6,
2,
0,
4,
0,
0,
0,
0,
0,
0,
0,
0,
0,
0,
0,
0,
0,
0,
0,
0,
0,
0,
0,
0,
0,
0,
0,
0,
0,
0,
0,
0,
0,
0,
0,
0,
0,
0,
0,
0,
0,
0,
0,
0,
0,
0,
0,
0,
0,
0,
0,
0,
0,
0,
0,
0,
0,
0,
0,
0,
0,
0,
0,
0,
0,
0,
0,
0,
0,
0,
0,
0,
0,
0,
0,
0,
0,
0,
0,
0,
0,
0,
0,
0,
0,
0,
0,
0,
0,
0,
0,
0,
0,
0,
0,
0,
0,
0,
0,
0,
0,
0,
0,
0,
0,
0,
0,
0,
0,
0,
0,
0,
0,
0,
0,
0,
0,
0,
0,
0,
0,
0,
0,
0,
0,
0,
0,
0,
0,
0,
0,
0,
0,
0,
0,
0,
0,
0,
0,
0,
0,
0,
0,
0,
0,
0,
0,
0,
0,
0,
0,
0,
0,
0,
0,
0,
0,
0,
0,
0,
0,
0,
0,
0,
0,
0,
0,
0,
0,
0,
0,
0,
0,
0,
0,
0,
0,
0,
0,
0,
0,
0,
0,
0,
0,
0,
0,
0,
0,
#ENDOFDATA   :