File: N132962/Quantification/15 keV/Mengason MM2/MMM2 Pollucite[0][4].msa
#FORMAT      : EMSA/MAS Spectral Data File
#VERSION     : 1.0
#TITLE       : MMM2 Pollucite[0][all]
#DATE        : 29-SEP-2025
#TIME        : 00:34
#OWNER       : Unknown
#NPOINTS     : 4096
#NCOLUMNS    : 1
#XUNITS      : eV
#YUNITS      : counts
#DATATYPE    : Y
#XPERCHAN    : 9.99778
#OFFSET      : 1.69135
#BEAMKV      : 15
#SIGNALTYPE  : EDS
#ELEVANGLE   : 35
#AZIMANGLE   : 0
#LIVETIME    : 240.213
#REALTIME    : 257.452
#PROBECUR    : 1.21186
#TAUWIND     : 0
#TDEADLYR    : 0
#TACTLYR     : 0.045
#TALWIND     : 0.025
#CHOFFSET    : 0.0
#XLABEL      : Energy (eV)
#YLABEL      : Counts
#XPOSITION   : -20.66644
#YPOSITION   : 3.82885
#ZPOSITION   : 34.11879
#EDSDET      : SD
##SPECIMEN   : MMM2 Pollucite[0][all]
##DET_HASH   : 12273538-fd48-a23f-0a19-f1e6fa85caef
##CALIB_HASH : 6abaa72c-aa41-8738-0be9-f592914732f3
##WORKING    : 15.0 mm
##DET_NAME   : EDAX All
##DET_MODE   : MediumLE
#SPECTRUM    :
13,
330,
15269,
11533,
86827,
6553,
4671,
7492,
5220,
5379,
9412,
25311,
46761,
23067,
4133,
3894,
4198,
3804,
3867,
3542,
3463,
3239,
3149,
3209,
3105,
2969,
2809,
3809,
2649,
2705,
9540,
19908,
2733,
16578,
4856,
5991,
2632,
2180,
3227,
1941,
2149,
1681,
1501,
1508,
1369,
1406,
1367,
1268,
1171,
1145,
1074,
1065,
984,
1046,
967,
955,
894,
829,
843,
806,
823,
737,
734,
705,
678,
622,
642,
591,
561,
537,
509,
498,
482,
434,
418,
368,
392,
363,
326,
333,
297,
273,
279,
248,
257,
217,
181,
191,
211,
171,
142,
157,
137,
121,
133,
103,
88,
69,
63,
71,
53,
42,
34,
20,
22,
24,
10,
2,
0,
2,
0,
1,
0,
1,
1,
1,
0,
1,
0,
0,
0,
1,
2,
1,
0,
0,
0,
2,
0,
0,
1,
0,
0,
0,
0,
0,
0,
0,
0,
1,
0,
0,
0,
0,
0,
0,
0,
0,
0,
0,
0,
0,
1,
0,
0,
0,
0,
0,
0,
0,
0,
0,
0,
0,
0,
0,
0,
0,
0,
1,
0,
0,
0,
0,
0,
0,
0,
0,
0,
0,
0,
0,
0,
0,
0,
0,
0,
0,
0,
0,
0,
0,
0,
0,
0,
0,
0,
0,
0,
0,
0,
0,
0,
0,
0,
0,
0,
0,
0,
0,
0,
0,
0,
0,
0,
0,
0,
0,
0,
0,
0,
0,
0,
0,
0,
0,
0,
0,
0,
0,
0,
0,
0,
0,
0,
0,
0,
0,
0,
0,
0,
0,
0,
0,
0,
0,
0,
0,
0,
0,
0,
0,
0,
0,
0,
0,
0,
0,
0,
0,
0,
0,
0,
0,
0,
0,
0,
0,
0,
0,
0,
0,
0,
0,
0,
0,
0,
0,
0,
0,
0,
0,
0,
0,
0,
0,
0,
0,
0,
0,
0,
0,
0,
0,
#ENDOFDATA   :