File: N132962/Quantification/15 keV/Mengason MM2/MMM2 Pyrite[0][4].msa
#FORMAT      : EMSA/MAS Spectral Data File
#VERSION     : 1.0
#TITLE       : MMM2 Pyrite[0][all]
#DATE        : 28-SEP-2025
#TIME        : 20:46
#OWNER       : Unknown
#NPOINTS     : 4096
#NCOLUMNS    : 1
#XUNITS      : eV
#YUNITS      : counts
#DATATYPE    : Y
#XPERCHAN    : 9.99778
#OFFSET      : 1.69135
#BEAMKV      : 15
#SIGNALTYPE  : EDS
#ELEVANGLE   : 35
#AZIMANGLE   : 0
#LIVETIME    : 240.2168
#REALTIME    : 259.042
#PROBECUR    : 1.21333
#TAUWIND     : 0
#TDEADLYR    : 0
#TACTLYR     : 0.045
#TALWIND     : 0.025
#CHOFFSET    : 0.0
#XLABEL      : Energy (eV)
#YLABEL      : Counts
#XPOSITION   : -11.67549
#YPOSITION   : -4.4005
#ZPOSITION   : 34.11879
#EDSDET      : SD
##SPECIMEN   : MMM2 Pyrite[0][all]
##D2STDCMP   : Pyrite,(S:53.4528),(Fe:46.5472)
##DET_HASH   : 12273538-fd48-a23f-0a19-f1e6fa85caef
##CALIB_HASH : 6abaa72c-aa41-8738-0be9-f592914732f3
##WORKING    : 15.0 mm
##DET_NAME   : EDAX All
##DET_MODE   : MediumLE
#SPECTRUM    :
27,
1053,
14553,
3805,
18573,
85330,
4810,
4871,
5525,
6160,
6562,
6578,
6723,
6757,
6078,
6225,
92163,
70245,
12870,
3232,
3291,
3351,
3280,
2980,
2831,
2759,
2754,
2659,
2602,
2497,
2398,
2261,
2297,
2815,
2170,
2033,
1981,
1793,
1871,
1774,
1763,
1676,
1448,
1541,
1592,
13084,
37505,
1681,
1289,
1382,
5449,
3290,
1009,
989,
973,
921,
835,
838,
840,
809,
726,
729,
874,
701,
646,
621,
647,
628,
531,
539,
505,
514,
474,
464,
396,
414,
383,
375,
358,
301,
286,
296,
257,
275,
229,
252,
216,
192,
171,
157,
155,
162,
149,
117,
122,
97,
94,
86,
63,
71,
56,
43,
29,
31,
24,
17,
9,
5,
2,
0,
2,
0,
1,
1,
1,
1,
1,
0,
0,
4,
1,
1,
0,
1,
1,
0,
0,
1,
0,
0,
0,
0,
2,
1,
0,
0,
0,
0,
0,
0,
0,
0,
0,
0,
0,
0,
0,
0,
0,
0,
0,
1,
0,
0,
0,
0,
0,
0,
0,
0,
0,
0,
0,
0,
0,
0,
0,
0,
0,
0,
0,
0,
0,
0,
0,
0,
0,
0,
0,
0,
0,
0,
0,
0,
0,
0,
0,
0,
0,
0,
0,
0,
0,
0,
0,
0,
0,
0,
0,
0,
0,
0,
0,
0,
0,
0,
0,
0,
0,
0,
0,
0,
0,
0,
0,
0,
0,
0,
0,
0,
0,
0,
0,
0,
0,
0,
0,
0,
0,
0,
0,
0,
0,
0,
0,
0,
0,
0,
0,
0,
0,
0,
0,
0,
0,
0,
0,
0,
0,
0,
0,
0,
0,
0,
0,
0,
0,
0,
0,
0,
0,
0,
0,
0,
0,
0,
0,
0,
0,
0,
0,
0,
0,
0,
0,
0,
0,
0,
0,
0,
0,
0,
0,
0,
0,
0,
0,
0,
0,
0,
0,
0,
0,
0,
#ENDOFDATA   :