File: N132962/Quantification/15 keV/Mengason MM2/MMM2 SrTiO3[4][4].msa
#FORMAT      : EMSA/MAS Spectral Data File
#VERSION     : 1.0
#TITLE       : MMM2 SrTiO3[4][all]
#DATE        : 29-SEP-2025
#TIME        : 00:18
#OWNER       : Unknown
#NPOINTS     : 4096
#NCOLUMNS    : 1
#XUNITS      : eV
#YUNITS      : counts
#DATATYPE    : Y
#XPERCHAN    : 9.99778
#OFFSET      : 1.69135
#BEAMKV      : 15
#SIGNALTYPE  : EDS
#ELEVANGLE   : 35
#AZIMANGLE   : 0
#LIVETIME    : 240.248
#REALTIME    : 256.611
#PROBECUR    : 1.21151
#TAUWIND     : 0
#TDEADLYR    : 0
#TACTLYR     : 0.045
#TALWIND     : 0.025
#CHOFFSET    : 0.0
#XLABEL      : Energy (eV)
#YLABEL      : Counts
#XPOSITION   : -15.21349
#YPOSITION   : 4.50191
#ZPOSITION   : 34.11879
#EDSDET      : SD
##SPECIMEN   : MMM2 SrTiO3[4][all]
##D2STDCMP   : SrTiO3,(O:26.1592),(Ti:26.0877),(Sr:47.7532)
##DET_HASH   : 12273538-fd48-a23f-0a19-f1e6fa85caef
##CALIB_HASH : 6abaa72c-aa41-8738-0be9-f592914732f3
##WORKING    : 15.0 mm
##DET_NAME   : EDAX All
##DET_MODE   : MediumLE
#SPECTRUM    :
18,
641,
16022,
13400,
23249,
4313,
5463,
6024,
6711,
7273,
7720,
11764,
11581,
201017,
16151,
4360,
4400,
4088,
3852,
3894,
4239,
3697,
3572,
3539,
3404,
3352,
3513,
3108,
2960,
2818,
2847,
3361,
54512,
8114,
2776,
9098,
3230,
2104,
2053,
1940,
1935,
1788,
1778,
1727,
1633,
1697,
1656,
1459,
1465,
1443,
1329,
1252,
1189,
1216,
1150,
1173,
1074,
1058,
1053,
989,
933,
905,
854,
825,
757,
737,
757,
671,
690,
643,
621,
600,
571,
549,
546,
520,
486,
483,
439,
399,
358,
356,
324,
328,
297,
268,
248,
247,
198,
200,
186,
177,
183,
139,
140,
115,
123,
81,
92,
90,
60,
53,
55,
37,
26,
16,
10,
4,
2,
2,
1,
2,
0,
1,
0,
0,
0,
0,
1,
0,
0,
3,
0,
0,
0,
1,
1,
1,
1,
2,
1,
0,
0,
0,
1,
0,
1,
0,
0,
0,
0,
0,
0,
0,
0,
1,
0,
1,
1,
1,
0,
0,
0,
0,
0,
0,
0,
0,
0,
0,
0,
0,
0,
0,
0,
0,
0,
0,
0,
0,
0,
0,
0,
0,
0,
0,
0,
0,
0,
0,
0,
0,
0,
0,
0,
0,
0,
0,
0,
0,
0,
0,
0,
0,
0,
0,
0,
0,
0,
0,
0,
0,
0,
0,
0,
0,
0,
0,
0,
0,
0,
0,
0,
0,
0,
0,
0,
0,
0,
0,
0,
0,
0,
0,
0,
0,
0,
0,
0,
0,
0,
0,
0,
0,
0,
0,
0,
0,
0,
0,
0,
0,
0,
0,
0,
0,
0,
0,
0,
0,
0,
0,
0,
0,
0,
0,
0,
0,
0,
0,
0,
0,
0,
0,
0,
0,
0,
0,
0,
0,
0,
0,
0,
0,
0,
0,
0,
0,
0,
0,
0,
0,
0,
0,
0,
0,
0,
0,
0,
0,
0,
0,
0,
0,
#ENDOFDATA   :