File: N132962/Quantification/15 keV/Mengason MM2/MMM2 Zircon-2[0][4].msa
#FORMAT      : EMSA/MAS Spectral Data File
#VERSION     : 1.0
#TITLE       : MMM2 Zircon-2[0][all]
#DATE        : 29-SEP-2025
#TIME        : 01:16
#OWNER       : Unknown
#NPOINTS     : 4096
#NCOLUMNS    : 1
#XUNITS      : eV
#YUNITS      : counts
#DATATYPE    : Y
#XPERCHAN    : 9.99778
#OFFSET      : 1.69135
#BEAMKV      : 15
#SIGNALTYPE  : EDS
#ELEVANGLE   : 35
#AZIMANGLE   : 0
#LIVETIME    : 240.271
#REALTIME    : 257.133
#PROBECUR    : 1.21247
#TAUWIND     : 0
#TDEADLYR    : 0
#TACTLYR     : 0.045
#TALWIND     : 0.025
#CHOFFSET    : 0.0
#XLABEL      : Energy (eV)
#YLABEL      : Counts
#XPOSITION   : -14.6734
#YPOSITION   : 7.58655
#ZPOSITION   : 34.11879
#EDSDET      : SD
##SPECIMEN   : MMM2 Zircon-2[0][all]
##DET_HASH   : 12273538-fd48-a23f-0a19-f1e6fa85caef
##CALIB_HASH : 6abaa72c-aa41-8738-0be9-f592914732f3
##WORKING    : 15.0 mm
##DET_NAME   : EDAX All
##DET_MODE   : MediumLE
#SPECTRUM    :
22,
1026,
18237,
6514,
37046,
4390,
5453,
6265,
6875,
7396,
7494,
8184,
48136,
30798,
26782,
94260,
11752,
3473,
4272,
3215,
3169,
3196,
3077,
3067,
2934,
3017,
2861,
2924,
2839,
2691,
2518,
2371,
2319,
2351,
2155,
2180,
1984,
1949,
1920,
1865,
1768,
1764,
1701,
1582,
1527,
1431,
1602,
1392,
1325,
1289,
1299,
1181,
1116,
1121,
1046,
1053,
1136,
1010,
954,
892,
872,
813,
798,
778,
802,
724,
695,
679,
606,
634,
559,
553,
504,
453,
474,
459,
436,
430,
402,
371,
362,
347,
284,
293,
296,
253,
225,
240,
204,
172,
181,
178,
140,
137,
119,
109,
112,
88,
78,
60,
58,
48,
45,
25,
25,
15,
10,
1,
0,
2,
1,
1,
1,
0,
0,
1,
0,
1,
0,
1,
0,
0,
0,
0,
0,
2,
0,
0,
0,
1,
0,
0,
1,
0,
0,
0,
0,
0,
0,
0,
1,
0,
0,
0,
0,
0,
0,
0,
0,
0,
0,
0,
0,
0,
0,
0,
0,
0,
0,
0,
0,
0,
0,
0,
0,
0,
0,
0,
0,
0,
0,
0,
0,
0,
0,
0,
0,
0,
0,
0,
0,
0,
0,
0,
0,
0,
0,
0,
0,
0,
0,
0,
0,
0,
0,
0,
0,
0,
0,
0,
0,
0,
0,
0,
0,
0,
0,
0,
0,
0,
0,
0,
0,
0,
0,
0,
0,
0,
0,
0,
0,
0,
0,
0,
0,
0,
0,
0,
0,
0,
0,
0,
0,
0,
0,
0,
0,
0,
0,
0,
0,
0,
0,
0,
0,
0,
0,
0,
0,
0,
0,
0,
0,
0,
0,
0,
0,
0,
0,
0,
0,
0,
0,
0,
0,
0,
0,
0,
0,
0,
0,
0,
0,
0,
0,
0,
0,
0,
0,
0,
0,
0,
0,
0,
0,
0,
0,
0,
0,
0,
0,
0,
0,
0,
#ENDOFDATA   :