File: N132962/Quantification/15 keV/Mengason MM2/MMM2 Willemite[3][4].msa
#FORMAT      : EMSA/MAS Spectral Data File
#VERSION     : 1.0
#TITLE       : MMM2 Willemite[3][all]
#DATE        : 28-SEP-2025
#TIME        : 23:46
#OWNER       : Unknown
#NPOINTS     : 4096
#NCOLUMNS    : 1
#XUNITS      : eV
#YUNITS      : counts
#DATATYPE    : Y
#XPERCHAN    : 9.99778
#OFFSET      : 1.69135
#BEAMKV      : 15
#SIGNALTYPE  : EDS
#ELEVANGLE   : 35
#AZIMANGLE   : 0
#LIVETIME    : 240.231
#REALTIME    : 257.889
#PROBECUR    : 1.21079
#TAUWIND     : 0
#TDEADLYR    : 0
#TACTLYR     : 0.045
#TALWIND     : 0.025
#CHOFFSET    : 0.0
#XLABEL      : Energy (eV)
#YLABEL      : Counts
#XPOSITION   : -11.64075
#YPOSITION   : 2.24336
#ZPOSITION   : 34.11879
#EDSDET      : SD
##SPECIMEN   : MMM2 Willemite[3][all]
##DET_HASH   : 12273538-fd48-a23f-0a19-f1e6fa85caef
##CALIB_HASH : 6abaa72c-aa41-8738-0be9-f592914732f3
##WORKING    : 15.0 mm
##DET_NAME   : EDAX All
##DET_MODE   : MediumLE
#SPECTRUM    :
16,
309,
15109,
9039,
59149,
6357,
14690,
163206,
7948,
4975,
4366,
5527,
27199,
14518,
4185,
4060,
4132,
3877,
3853,
3660,
3703,
3424,
3324,
3164,
3100,
2985,
2830,
2730,
2727,
2569,
2464,
2333,
2230,
2086,
2042,
2032,
1888,
1836,
1772,
1698,
1682,
1728,
7441,
1975,
1505,
1430,
1959,
1475,
1176,
1229,
1167,
1135,
1027,
999,
942,
922,
917,
854,
823,
886,
845,
8297,
13317,
992,
678,
655,
612,
671,
2377,
1428,
482,
453,
472,
430,
441,
374,
355,
344,
328,
305,
319,
257,
261,
255,
210,
203,
199,
197,
193,
192,
154,
138,
130,
104,
95,
104,
81,
74,
71,
60,
43,
42,
30,
26,
24,
12,
8,
2,
1,
0,
1,
0,
0,
0,
1,
1,
0,
0,
1,
0,
1,
1,
1,
0,
1,
1,
0,
1,
0,
0,
1,
0,
0,
0,
0,
0,
1,
0,
0,
0,
0,
0,
0,
0,
0,
0,
0,
0,
0,
0,
0,
0,
0,
0,
0,
0,
0,
0,
0,
0,
0,
0,
0,
0,
0,
0,
0,
1,
0,
0,
0,
0,
0,
0,
0,
0,
0,
0,
0,
0,
0,
0,
0,
0,
0,
0,
0,
0,
0,
0,
0,
0,
0,
0,
0,
0,
0,
0,
0,
0,
0,
0,
0,
0,
0,
0,
0,
0,
0,
0,
0,
0,
0,
0,
0,
0,
0,
0,
0,
0,
0,
0,
0,
0,
0,
0,
0,
0,
0,
0,
0,
0,
0,
0,
0,
0,
0,
0,
0,
0,
0,
0,
0,
0,
0,
0,
0,
0,
0,
0,
0,
0,
0,
0,
0,
0,
0,
0,
0,
0,
0,
0,
0,
0,
0,
0,
0,
0,
0,
0,
0,
0,
0,
0,
0,
0,
0,
0,
0,
0,
0,
0,
0,
0,
0,
0,
0,
0,
0,
0,
0,
0,
0,
0,
#ENDOFDATA   :