File: N132962/Quantification/15 keV/Mengason MM2/MMM2 Zircon-2[6][4].msa
#FORMAT      : EMSA/MAS Spectral Data File
#VERSION     : 1.0
#TITLE       : MMM2 Zircon-2[6][all]
#DATE        : 29-SEP-2025
#TIME        : 01:22
#OWNER       : Unknown
#NPOINTS     : 4096
#NCOLUMNS    : 1
#XUNITS      : eV
#YUNITS      : counts
#DATATYPE    : Y
#XPERCHAN    : 9.99778
#OFFSET      : 1.69135
#BEAMKV      : 15
#SIGNALTYPE  : EDS
#ELEVANGLE   : 35
#AZIMANGLE   : 0
#LIVETIME    : 240.327
#REALTIME    : 257.127
#PROBECUR    : 1.21248
#TAUWIND     : 0
#TDEADLYR    : 0
#TACTLYR     : 0.045
#TALWIND     : 0.025
#CHOFFSET    : 0.0
#XLABEL      : Energy (eV)
#YLABEL      : Counts
#XPOSITION   : -14.67849
#YPOSITION   : 7.55358
#ZPOSITION   : 34.11879
#EDSDET      : SD
##SPECIMEN   : MMM2 Zircon-2[6][all]
##DET_HASH   : 12273538-fd48-a23f-0a19-f1e6fa85caef
##CALIB_HASH : 6abaa72c-aa41-8738-0be9-f592914732f3
##WORKING    : 15.0 mm
##DET_NAME   : EDAX All
##DET_MODE   : MediumLE
#SPECTRUM    :
23,
995,
18039,
6536,
37463,
4627,
5530,
6357,
6820,
7578,
7713,
8225,
47158,
30307,
28882,
91762,
11666,
3598,
4299,
3284,
3314,
3144,
3028,
2938,
3024,
3027,
2960,
2919,
2850,
2706,
2580,
2433,
2319,
2233,
2156,
2198,
2041,
2070,
1859,
1800,
1822,
1744,
1719,
1542,
1571,
1546,
1653,
1433,
1328,
1280,
1250,
1196,
1210,
1151,
1123,
1023,
1106,
999,
912,
905,
835,
810,
771,
795,
775,
742,
666,
630,
578,
593,
593,
595,
548,
514,
478,
419,
437,
415,
419,
369,
366,
307,
301,
326,
231,
235,
215,
211,
206,
214,
191,
161,
162,
134,
127,
115,
84,
95,
90,
89,
52,
54,
38,
38,
35,
15,
10,
3,
0,
2,
0,
2,
1,
0,
0,
0,
0,
1,
1,
1,
0,
0,
0,
0,
2,
0,
0,
0,
0,
0,
0,
0,
0,
0,
0,
0,
0,
0,
0,
0,
0,
0,
0,
0,
0,
0,
0,
1,
0,
0,
0,
0,
0,
0,
0,
0,
0,
0,
0,
0,
1,
0,
0,
0,
0,
0,
0,
0,
0,
0,
0,
0,
0,
0,
0,
0,
0,
0,
0,
0,
0,
0,
0,
0,
0,
0,
0,
0,
0,
0,
0,
0,
0,
0,
0,
0,
0,
0,
0,
0,
0,
0,
0,
0,
0,
0,
0,
0,
0,
0,
0,
0,
0,
0,
0,
0,
0,
0,
0,
0,
0,
0,
0,
0,
0,
0,
0,
0,
0,
0,
0,
0,
0,
0,
0,
0,
0,
0,
0,
0,
0,
0,
0,
0,
0,
0,
0,
0,
0,
0,
0,
0,
0,
0,
0,
0,
0,
0,
0,
0,
0,
0,
0,
0,
0,
0,
0,
0,
0,
0,
0,
0,
0,
0,
0,
0,
0,
0,
0,
0,
0,
0,
0,
0,
0,
0,
0,
0,
0,
0,
0,
0,
0,
0,
#ENDOFDATA   :