File: N132962/Quantification/15 keV/Mengason MM2/MMM2 Spessartine[0][4].msa
#FORMAT      : EMSA/MAS Spectral Data File
#VERSION     : 1.0
#TITLE       : MMM2 Spessartine[0][all]
#DATE        : 29-SEP-2025
#TIME        : 00:44
#OWNER       : Unknown
#NPOINTS     : 4096
#NCOLUMNS    : 1
#XUNITS      : eV
#YUNITS      : counts
#DATATYPE    : Y
#XPERCHAN    : 9.99778
#OFFSET      : 1.69135
#BEAMKV      : 15
#SIGNALTYPE  : EDS
#ELEVANGLE   : 35
#AZIMANGLE   : 0
#LIVETIME    : 240.312
#REALTIME    : 256.751
#PROBECUR    : 1.21186
#TAUWIND     : 0
#TDEADLYR    : 0
#TACTLYR     : 0.045
#TALWIND     : 0.025
#CHOFFSET    : 0.0
#XLABEL      : Energy (eV)
#YLABEL      : Counts
#XPOSITION   : -19.75068
#YPOSITION   : 6.71662
#ZPOSITION   : 34.11879
#EDSDET      : SD
##SPECIMEN   : MMM2 Spessartine[0][all]
##DET_HASH   : 12273538-fd48-a23f-0a19-f1e6fa85caef
##CALIB_HASH : 6abaa72c-aa41-8738-0be9-f592914732f3
##WORKING    : 15.0 mm
##DET_NAME   : EDAX All
##DET_MODE   : MediumLE
#SPECTRUM    :
18,
286,
13389,
11640,
96602,
7772,
3230,
4033,
4436,
4903,
10010,
32305,
38051,
18987,
3622,
3283,
3577,
3016,
3083,
2867,
2789,
2766,
2582,
2589,
2300,
2319,
2742,
2206,
1983,
1992,
1891,
1723,
1718,
1615,
1528,
1489,
1386,
1348,
1296,
1218,
1269,
2308,
40210,
4275,
1060,
1428,
5562,
2303,
822,
836,
899,
830,
711,
786,
680,
666,
610,
573,
579,
556,
510,
524,
483,
472,
450,
431,
426,
407,
389,
348,
327,
349,
305,
301,
293,
245,
251,
253,
225,
242,
219,
173,
207,
187,
168,
152,
113,
124,
116,
101,
114,
104,
87,
77,
74,
60,
67,
60,
44,
38,
26,
23,
27,
22,
13,
12,
3,
2,
1,
0,
1,
1,
1,
1,
0,
0,
1,
1,
0,
0,
1,
1,
0,
0,
0,
0,
0,
0,
0,
1,
0,
0,
1,
0,
0,
0,
0,
0,
1,
0,
0,
0,
0,
0,
0,
0,
0,
0,
0,
0,
0,
0,
0,
0,
0,
0,
0,
0,
0,
0,
0,
0,
0,
0,
0,
0,
0,
0,
0,
0,
0,
0,
0,
0,
0,
0,
0,
0,
0,
0,
0,
0,
0,
0,
0,
0,
0,
0,
0,
0,
0,
0,
0,
0,
0,
0,
0,
0,
0,
0,
0,
0,
0,
0,
0,
0,
0,
0,
0,
0,
0,
0,
0,
0,
0,
0,
0,
0,
0,
0,
0,
0,
0,
0,
0,
0,
0,
0,
0,
0,
0,
0,
0,
0,
0,
0,
0,
0,
0,
0,
0,
0,
0,
0,
0,
0,
0,
0,
0,
0,
0,
0,
0,
0,
0,
0,
0,
0,
0,
0,
0,
0,
0,
0,
0,
0,
0,
0,
0,
0,
0,
0,
0,
0,
0,
0,
0,
0,
0,
0,
0,
0,
0,
0,
0,
0,
0,
0,
0,
0,
0,
0,
0,
0,
#ENDOFDATA   :