File: N132962/Quantification/15 keV/Mengason MM2/MMM2 SrTiO3[3][4].msa
#FORMAT      : EMSA/MAS Spectral Data File
#VERSION     : 1.0
#TITLE       : MMM2 SrTiO3[3][all]
#DATE        : 29-SEP-2025
#TIME        : 00:17
#OWNER       : Unknown
#NPOINTS     : 4096
#NCOLUMNS    : 1
#XUNITS      : eV
#YUNITS      : counts
#DATATYPE    : Y
#XPERCHAN    : 9.99778
#OFFSET      : 1.69135
#BEAMKV      : 15
#SIGNALTYPE  : EDS
#ELEVANGLE   : 35
#AZIMANGLE   : 0
#LIVETIME    : 240.392
#REALTIME    : 256.802
#PROBECUR    : 1.21151
#TAUWIND     : 0
#TDEADLYR    : 0
#TACTLYR     : 0.045
#TALWIND     : 0.025
#CHOFFSET    : 0.0
#XLABEL      : Energy (eV)
#YLABEL      : Counts
#XPOSITION   : -15.17745
#YPOSITION   : 4.46175
#ZPOSITION   : 34.11879
#EDSDET      : SD
##SPECIMEN   : MMM2 SrTiO3[3][all]
##D2STDCMP   : SrTiO3,(O:26.1592),(Ti:26.0877),(Sr:47.7532)
##DET_HASH   : 12273538-fd48-a23f-0a19-f1e6fa85caef
##CALIB_HASH : 6abaa72c-aa41-8738-0be9-f592914732f3
##WORKING    : 15.0 mm
##DET_NAME   : EDAX All
##DET_MODE   : MediumLE
#SPECTRUM    :
27,
647,
15909,
13448,
23764,
4453,
5434,
6229,
6796,
7396,
7650,
11726,
11544,
203091,
16071,
4280,
4423,
4041,
3883,
3808,
4089,
3651,
3646,
3402,
3426,
3381,
3459,
3067,
3021,
2830,
2817,
3318,
54268,
8101,
2706,
9035,
3201,
2017,
1926,
1923,
1943,
1861,
1731,
1668,
1657,
1725,
1676,
1462,
1481,
1382,
1344,
1301,
1221,
1220,
1202,
1057,
1081,
1000,
1056,
954,
957,
882,
877,
805,
829,
777,
708,
692,
679,
666,
625,
602,
586,
541,
516,
499,
477,
428,
416,
384,
395,
348,
323,
306,
278,
278,
246,
243,
250,
208,
183,
167,
162,
133,
142,
128,
107,
98,
85,
64,
64,
58,
54,
30,
30,
29,
14,
2,
1,
3,
1,
0,
4,
1,
0,
0,
1,
1,
1,
0,
1,
0,
0,
0,
1,
0,
0,
0,
0,
1,
0,
0,
2,
1,
0,
0,
0,
0,
0,
0,
0,
0,
0,
0,
0,
0,
0,
0,
0,
0,
0,
0,
0,
0,
1,
0,
0,
0,
0,
0,
0,
0,
0,
0,
0,
0,
0,
0,
0,
0,
0,
0,
0,
0,
0,
0,
0,
0,
0,
0,
0,
0,
0,
0,
0,
0,
0,
0,
0,
0,
0,
0,
0,
0,
1,
0,
0,
0,
0,
0,
0,
0,
0,
0,
0,
0,
0,
0,
0,
0,
0,
0,
0,
0,
0,
0,
0,
0,
0,
0,
0,
0,
0,
0,
0,
0,
0,
0,
0,
0,
0,
0,
0,
0,
0,
0,
0,
0,
0,
0,
0,
0,
0,
0,
0,
0,
0,
0,
0,
0,
0,
0,
0,
0,
0,
0,
0,
0,
0,
0,
0,
0,
0,
0,
0,
0,
0,
0,
0,
0,
0,
0,
0,
0,
0,
0,
0,
0,
0,
0,
0,
0,
0,
0,
0,
0,
0,
0,
0,
0,
0,
0,
0,
0,
#ENDOFDATA   :