File: N132962/Quantification/15 keV/Mengason MM2/MMM2 Willemite[5][4].msa
#FORMAT      : EMSA/MAS Spectral Data File
#VERSION     : 1.0
#TITLE       : MMM2 Willemite[5][all]
#DATE        : 28-SEP-2025
#TIME        : 23:48
#OWNER       : Unknown
#NPOINTS     : 4096
#NCOLUMNS    : 1
#XUNITS      : eV
#YUNITS      : counts
#DATATYPE    : Y
#XPERCHAN    : 9.99778
#OFFSET      : 1.69135
#BEAMKV      : 15
#SIGNALTYPE  : EDS
#ELEVANGLE   : 35
#AZIMANGLE   : 0
#LIVETIME    : 240.243
#REALTIME    : 257.954
#PROBECUR    : 1.21079
#TAUWIND     : 0
#TDEADLYR    : 0
#TACTLYR     : 0.045
#TALWIND     : 0.025
#CHOFFSET    : 0.0
#XLABEL      : Energy (eV)
#YLABEL      : Counts
#XPOSITION   : -11.58969
#YPOSITION   : 2.2532
#ZPOSITION   : 34.11879
#EDSDET      : SD
##SPECIMEN   : MMM2 Willemite[5][all]
##DET_HASH   : 12273538-fd48-a23f-0a19-f1e6fa85caef
##CALIB_HASH : 6abaa72c-aa41-8738-0be9-f592914732f3
##WORKING    : 15.0 mm
##DET_NAME   : EDAX All
##DET_MODE   : MediumLE
#SPECTRUM    :
26,
323,
15665,
9189,
59676,
6476,
14520,
163777,
7944,
5079,
4373,
5602,
27115,
14720,
4042,
3990,
4043,
3806,
3700,
3766,
3594,
3375,
3314,
3200,
3083,
3043,
2875,
2690,
2681,
2637,
2459,
2412,
2174,
2056,
2132,
2095,
1833,
1790,
1733,
1707,
1642,
1767,
7314,
1965,
1467,
1390,
1916,
1466,
1243,
1205,
1101,
1048,
1035,
1030,
1014,
921,
882,
854,
827,
811,
893,
8161,
13245,
935,
673,
685,
604,
681,
2450,
1533,
514,
455,
442,
434,
425,
434,
379,
374,
318,
318,
298,
281,
244,
247,
242,
226,
207,
228,
187,
161,
157,
136,
121,
101,
97,
99,
59,
83,
59,
50,
54,
41,
29,
26,
29,
10,
12,
2,
1,
0,
2,
1,
0,
1,
0,
0,
0,
0,
1,
0,
0,
0,
1,
2,
2,
0,
1,
2,
0,
2,
2,
0,
0,
0,
2,
1,
0,
0,
0,
0,
1,
0,
0,
0,
1,
0,
0,
0,
0,
0,
0,
0,
0,
0,
0,
0,
0,
0,
0,
0,
0,
0,
0,
0,
0,
1,
0,
0,
0,
0,
0,
0,
0,
0,
0,
0,
0,
0,
0,
0,
0,
0,
0,
0,
0,
0,
0,
0,
0,
0,
0,
0,
0,
0,
0,
0,
0,
0,
0,
0,
0,
0,
0,
0,
0,
0,
0,
0,
0,
0,
0,
0,
0,
0,
0,
0,
0,
0,
0,
0,
0,
0,
0,
0,
0,
0,
0,
0,
0,
0,
0,
0,
0,
0,
0,
0,
0,
0,
0,
0,
0,
0,
0,
0,
0,
0,
0,
0,
0,
0,
0,
0,
0,
0,
0,
0,
0,
0,
0,
0,
0,
0,
0,
0,
0,
0,
0,
0,
0,
0,
0,
0,
0,
0,
0,
0,
0,
0,
0,
0,
0,
0,
0,
0,
0,
0,
0,
0,
0,
0,
0,
0,
0,
0,
#ENDOFDATA   :