File: N132962/Quantification/15 keV/Mengason MM2/MMM2 Zircon[5][4].msa
#FORMAT      : EMSA/MAS Spectral Data File
#VERSION     : 1.0
#TITLE       : MMM2 Zircon[5][all]
#DATE        : 29-SEP-2025
#TIME        : 01:11
#OWNER       : Unknown
#NPOINTS     : 4096
#NCOLUMNS    : 1
#XUNITS      : eV
#YUNITS      : counts
#DATATYPE    : Y
#XPERCHAN    : 9.99778
#OFFSET      : 1.69135
#BEAMKV      : 15
#SIGNALTYPE  : EDS
#ELEVANGLE   : 35
#AZIMANGLE   : 0
#LIVETIME    : 240.306
#REALTIME    : 257.1283
#PROBECUR    : 1.21247
#TAUWIND     : 0
#TDEADLYR    : 0
#TACTLYR     : 0.045
#TALWIND     : 0.025
#CHOFFSET    : 0.0
#XLABEL      : Energy (eV)
#YLABEL      : Counts
#XPOSITION   : -13.63576
#YPOSITION   : 6.99326
#ZPOSITION   : 34.11879
#EDSDET      : SD
##SPECIMEN   : MMM2 Zircon[5][all]
##D2STDCMP   : Zircon,(O:34.9128),(Si:15.3216),(Zr:49.7657),8.0
##DET_HASH   : 12273538-fd48-a23f-0a19-f1e6fa85caef
##CALIB_HASH : 6abaa72c-aa41-8738-0be9-f592914732f3
##WORKING    : 15.0 mm
##DET_NAME   : EDAX All
##DET_MODE   : MediumLE
#SPECTRUM    :
32,
1045,
18035,
6541,
37208,
4674,
5568,
6244,
7006,
7388,
7552,
8121,
48288,
30411,
26526,
94099,
11795,
3665,
4270,
3217,
3144,
3054,
3156,
2944,
2986,
2983,
2863,
3076,
2822,
2689,
2651,
2410,
2358,
2232,
2233,
2105,
2081,
1996,
1904,
1833,
1818,
1726,
1661,
1644,
1511,
1551,
1470,
1414,
1355,
1344,
1246,
1201,
1153,
1151,
1088,
1058,
1201,
1061,
942,
892,
875,
835,
806,
761,
748,
711,
671,
721,
622,
615,
547,
496,
496,
474,
444,
490,
435,
393,
393,
375,
297,
320,
327,
295,
288,
251,
237,
214,
210,
189,
165,
160,
127,
133,
136,
108,
100,
83,
76,
71,
65,
50,
50,
35,
22,
20,
8,
4,
1,
2,
1,
0,
0,
0,
1,
0,
1,
1,
0,
1,
2,
0,
0,
0,
0,
0,
0,
0,
0,
0,
0,
0,
0,
1,
0,
0,
0,
0,
0,
0,
0,
0,
0,
0,
0,
0,
0,
1,
0,
0,
0,
0,
0,
0,
0,
0,
0,
0,
0,
0,
0,
0,
0,
0,
0,
0,
0,
0,
0,
0,
0,
0,
0,
0,
0,
0,
0,
0,
0,
0,
0,
0,
0,
0,
0,
0,
0,
0,
0,
0,
0,
0,
0,
0,
0,
0,
0,
0,
0,
0,
0,
0,
0,
0,
0,
0,
0,
0,
0,
0,
0,
0,
0,
0,
0,
0,
0,
0,
0,
0,
0,
0,
0,
0,
0,
0,
0,
0,
0,
0,
0,
0,
0,
0,
0,
0,
0,
0,
0,
0,
0,
0,
0,
0,
0,
0,
0,
0,
0,
0,
0,
0,
0,
0,
0,
0,
0,
0,
0,
0,
0,
0,
0,
0,
0,
0,
0,
0,
0,
0,
0,
0,
0,
0,
0,
0,
0,
0,
0,
0,
0,
0,
0,
0,
0,
0,
0,
0,
0,
0,
0,
0,
0,
0,
#ENDOFDATA   :