File: N132962/Quantification/15 keV/Mengason MM2/MMM2 Pentlandite[6][4].msa
#FORMAT      : EMSA/MAS Spectral Data File
#VERSION     : 1.0
#TITLE       : MMM2 Pentlandite[6][all]
#DATE        : 28-SEP-2025
#TIME        : 21:45
#OWNER       : Unknown
#NPOINTS     : 4096
#NCOLUMNS    : 1
#XUNITS      : eV
#YUNITS      : counts
#DATATYPE    : Y
#XPERCHAN    : 9.99778
#OFFSET      : 1.69135
#BEAMKV      : 15
#SIGNALTYPE  : EDS
#ELEVANGLE   : 35
#AZIMANGLE   : 0
#LIVETIME    : 240.303
#REALTIME    : 257.9
#PROBECUR    : 1.21217
#TAUWIND     : 0
#TDEADLYR    : 0
#TACTLYR     : 0.045
#TALWIND     : 0.025
#CHOFFSET    : 0.0
#XLABEL      : Energy (eV)
#YLABEL      : Counts
#XPOSITION   : -15.86015
#YPOSITION   : -2.37821
#ZPOSITION   : 34.11879
#EDSDET      : SD
##SPECIMEN   : MMM2 Pentlandite[6][all]
##DET_HASH   : 12273538-fd48-a23f-0a19-f1e6fa85caef
##CALIB_HASH : 6abaa72c-aa41-8738-0be9-f592914732f3
##WORKING    : 15.0 mm
##DET_NAME   : EDAX All
##DET_MODE   : MediumLE
#SPECTRUM    :
22,
625,
15740,
4759,
16710,
66918,
87513,
4635,
4699,
5293,
5691,
6075,
6324,
6184,
5514,
5932,
55910,
43594,
9716,
3882,
3807,
3769,
3616,
3517,
3329,
3228,
3148,
2979,
2994,
2918,
2730,
2621,
2527,
2785,
2479,
2318,
2289,
2144,
2112,
1917,
1840,
1940,
1829,
1677,
1805,
9851,
27682,
1694,
1463,
1733,
4596,
2837,
1515,
17682,
8756,
1158,
1066,
1007,
1358,
3859,
1126,
814,
822,
783,
698,
732,
699,
676,
680,
622,
623,
620,
562,
506,
469,
447,
456,
434,
377,
378,
354,
354,
324,
302,
270,
270,
233,
238,
214,
224,
196,
158,
172,
133,
120,
108,
97,
93,
70,
75,
80,
36,
45,
39,
26,
19,
12,
7,
1,
1,
0,
2,
0,
1,
1,
0,
5,
2,
1,
0,
1,
0,
1,
1,
0,
0,
1,
0,
2,
1,
0,
0,
3,
0,
0,
0,
0,
0,
1,
1,
0,
0,
0,
0,
0,
0,
0,
0,
0,
0,
0,
0,
0,
0,
0,
0,
0,
0,
0,
0,
0,
0,
0,
0,
0,
0,
0,
0,
0,
0,
0,
0,
0,
0,
0,
0,
0,
0,
0,
0,
0,
0,
0,
0,
0,
0,
0,
0,
0,
0,
0,
0,
0,
0,
0,
0,
0,
0,
0,
0,
0,
0,
0,
0,
0,
0,
0,
0,
0,
0,
0,
0,
0,
0,
0,
0,
0,
0,
0,
0,
0,
0,
0,
0,
0,
0,
0,
0,
0,
0,
0,
0,
0,
0,
0,
0,
0,
0,
0,
0,
0,
0,
0,
0,
0,
0,
0,
0,
0,
0,
0,
0,
0,
0,
0,
0,
0,
0,
0,
0,
0,
0,
0,
0,
0,
0,
0,
0,
0,
0,
0,
0,
0,
0,
0,
0,
0,
0,
0,
0,
0,
1,
0,
0,
0,
0,
0,
0,
0,
0,
0,
0,
0,
0,
#ENDOFDATA   :