File: N132962/Quantification/15 keV/Mengason MM2/MMM2 Zircon-2[4][4].msa
#FORMAT      : EMSA/MAS Spectral Data File
#VERSION     : 1.0
#TITLE       : MMM2 Zircon-2[4][all]
#DATE        : 29-SEP-2025
#TIME        : 01:20
#OWNER       : Unknown
#NPOINTS     : 4096
#NCOLUMNS    : 1
#XUNITS      : eV
#YUNITS      : counts
#DATATYPE    : Y
#XPERCHAN    : 9.99778
#OFFSET      : 1.69135
#BEAMKV      : 15
#SIGNALTYPE  : EDS
#ELEVANGLE   : 35
#AZIMANGLE   : 0
#LIVETIME    : 240.247
#REALTIME    : 257.13
#PROBECUR    : 1.21248
#TAUWIND     : 0
#TDEADLYR    : 0
#TACTLYR     : 0.045
#TALWIND     : 0.025
#CHOFFSET    : 0.0
#XLABEL      : Energy (eV)
#YLABEL      : Counts
#XPOSITION   : -14.67144
#YPOSITION   : 7.60528
#ZPOSITION   : 34.11879
#EDSDET      : SD
##SPECIMEN   : MMM2 Zircon-2[4][all]
##DET_HASH   : 12273538-fd48-a23f-0a19-f1e6fa85caef
##CALIB_HASH : 6abaa72c-aa41-8738-0be9-f592914732f3
##WORKING    : 15.0 mm
##DET_NAME   : EDAX All
##DET_MODE   : MediumLE
#SPECTRUM    :
27,
1067,
18134,
6517,
37011,
4615,
5527,
6284,
6921,
7534,
7795,
8169,
48487,
30472,
26870,
94823,
11740,
3502,
4365,
3303,
3314,
3064,
3161,
3055,
3084,
3071,
2831,
3013,
2748,
2737,
2653,
2455,
2341,
2218,
2146,
2154,
2044,
2009,
1948,
1889,
1739,
1760,
1652,
1562,
1593,
1533,
1581,
1422,
1375,
1286,
1283,
1208,
1135,
1137,
1101,
1029,
1120,
981,
1002,
911,
797,
806,
754,
797,
773,
741,
718,
685,
602,
585,
589,
543,
533,
478,
448,
434,
441,
417,
409,
400,
318,
316,
296,
268,
309,
262,
237,
228,
212,
203,
188,
154,
151,
123,
139,
112,
113,
83,
87,
75,
60,
58,
48,
38,
25,
17,
5,
4,
0,
1,
2,
0,
0,
2,
0,
0,
1,
0,
0,
1,
1,
0,
0,
0,
0,
0,
0,
0,
1,
0,
0,
0,
0,
0,
0,
0,
0,
0,
0,
0,
1,
0,
0,
0,
0,
0,
0,
1,
0,
0,
0,
0,
0,
0,
0,
0,
0,
0,
0,
0,
0,
0,
0,
0,
0,
0,
0,
0,
0,
0,
0,
0,
0,
0,
0,
0,
0,
0,
0,
0,
0,
0,
0,
0,
0,
0,
0,
0,
0,
0,
0,
0,
0,
0,
0,
0,
0,
0,
0,
0,
0,
0,
0,
0,
0,
0,
0,
0,
0,
0,
0,
0,
0,
0,
0,
0,
0,
0,
0,
0,
0,
0,
0,
0,
0,
0,
0,
0,
0,
0,
0,
0,
0,
0,
0,
0,
0,
0,
0,
0,
0,
0,
0,
0,
0,
0,
0,
0,
0,
0,
0,
0,
0,
0,
0,
0,
0,
0,
0,
0,
0,
0,
0,
0,
0,
0,
0,
0,
0,
0,
0,
0,
0,
0,
0,
0,
0,
0,
0,
0,
0,
0,
0,
0,
0,
0,
0,
0,
0,
0,
0,
0,
0,
0,
#ENDOFDATA   :