File: N132962/Quantification/15 keV/Mengason MM2/MMM2 Pentlandite[0][4].msa
#FORMAT      : EMSA/MAS Spectral Data File
#VERSION     : 1.0
#TITLE       : MMM2 Pentlandite[0][all]
#DATE        : 28-SEP-2025
#TIME        : 21:38
#OWNER       : Unknown
#NPOINTS     : 4096
#NCOLUMNS    : 1
#XUNITS      : eV
#YUNITS      : counts
#DATATYPE    : Y
#XPERCHAN    : 9.99778
#OFFSET      : 1.69135
#BEAMKV      : 15
#SIGNALTYPE  : EDS
#ELEVANGLE   : 35
#AZIMANGLE   : 0
#LIVETIME    : 240.252
#REALTIME    : 257.835
#PROBECUR    : 1.21217
#TAUWIND     : 0
#TDEADLYR    : 0
#TACTLYR     : 0.045
#TALWIND     : 0.025
#CHOFFSET    : 0.0
#XLABEL      : Energy (eV)
#YLABEL      : Counts
#XPOSITION   : -15.82754
#YPOSITION   : -2.34693
#ZPOSITION   : 34.11879
#EDSDET      : SD
##SPECIMEN   : MMM2 Pentlandite[0][all]
##DET_HASH   : 12273538-fd48-a23f-0a19-f1e6fa85caef
##CALIB_HASH : 6abaa72c-aa41-8738-0be9-f592914732f3
##WORKING    : 15.0 mm
##DET_NAME   : EDAX All
##DET_MODE   : MediumLE
#SPECTRUM    :
30,
628,
15526,
4729,
16522,
67148,
87767,
4756,
4713,
5377,
5713,
6026,
6282,
6356,
5641,
5936,
56099,
43524,
9570,
3824,
3828,
3797,
3662,
3593,
3391,
3279,
3215,
2950,
2898,
2862,
2730,
2659,
2607,
2714,
2486,
2260,
2226,
2179,
2226,
1937,
1901,
1933,
1808,
1720,
1737,
9843,
27272,
1805,
1468,
1741,
4622,
2858,
1477,
17685,
8561,
1139,
1001,
1042,
1315,
3815,
1193,
788,
897,
748,
723,
698,
662,
613,
665,
628,
655,
576,
574,
505,
492,
463,
465,
403,
390,
416,
350,
343,
321,
274,
279,
243,
236,
233,
215,
222,
208,
174,
148,
144,
115,
127,
101,
91,
91,
86,
62,
42,
44,
31,
31,
23,
13,
4,
0,
1,
1,
3,
3,
3,
0,
1,
2,
1,
1,
1,
0,
0,
2,
1,
0,
1,
0,
1,
1,
1,
1,
1,
0,
1,
0,
1,
0,
0,
1,
0,
0,
0,
0,
1,
1,
0,
0,
0,
0,
0,
0,
0,
0,
0,
0,
0,
0,
1,
0,
0,
0,
0,
0,
0,
0,
1,
0,
0,
0,
0,
0,
0,
0,
0,
0,
0,
0,
0,
0,
0,
0,
0,
0,
0,
0,
0,
0,
0,
0,
0,
0,
0,
0,
0,
0,
0,
0,
0,
0,
0,
0,
0,
0,
0,
0,
0,
0,
0,
0,
0,
0,
0,
0,
0,
0,
0,
0,
0,
0,
0,
0,
0,
0,
0,
0,
0,
0,
0,
0,
0,
0,
0,
0,
0,
0,
0,
0,
0,
0,
0,
0,
0,
0,
0,
0,
0,
0,
0,
0,
0,
0,
0,
0,
0,
0,
0,
0,
0,
0,
0,
0,
0,
0,
0,
0,
0,
0,
0,
0,
0,
0,
0,
0,
0,
0,
0,
0,
0,
0,
0,
0,
0,
0,
0,
0,
0,
0,
0,
0,
0,
0,
0,
0,
0,
#ENDOFDATA   :