File: N132962/Quantification/15 keV/Mengason MM2/MMM2 SrTiO3[6][4].msa
#FORMAT      : EMSA/MAS Spectral Data File
#VERSION     : 1.0
#TITLE       : MMM2 SrTiO3[6][all]
#DATE        : 29-SEP-2025
#TIME        : 00:20
#OWNER       : Unknown
#NPOINTS     : 4096
#NCOLUMNS    : 1
#XUNITS      : eV
#YUNITS      : counts
#DATATYPE    : Y
#XPERCHAN    : 9.99778
#OFFSET      : 1.69135
#BEAMKV      : 15
#SIGNALTYPE  : EDS
#ELEVANGLE   : 35
#AZIMANGLE   : 0
#LIVETIME    : 240.231
#REALTIME    : 256.624
#PROBECUR    : 1.21151
#TAUWIND     : 0
#TDEADLYR    : 0
#TACTLYR     : 0.045
#TALWIND     : 0.025
#CHOFFSET    : 0.0
#XLABEL      : Energy (eV)
#YLABEL      : Counts
#XPOSITION   : -15.17207
#YPOSITION   : 4.62676
#ZPOSITION   : 34.11879
#EDSDET      : SD
##SPECIMEN   : MMM2 SrTiO3[6][all]
##D2STDCMP   : SrTiO3,(O:26.1592),(Ti:26.0877),(Sr:47.7532)
##DET_HASH   : 12273538-fd48-a23f-0a19-f1e6fa85caef
##CALIB_HASH : 6abaa72c-aa41-8738-0be9-f592914732f3
##WORKING    : 15.0 mm
##DET_NAME   : EDAX All
##DET_MODE   : MediumLE
#SPECTRUM    :
19,
606,
15935,
13613,
23789,
4326,
5326,
6122,
6777,
7299,
7635,
11769,
11530,
201203,
16072,
4168,
4515,
4080,
3948,
3891,
3998,
3714,
3561,
3596,
3500,
3326,
3528,
3170,
3030,
2893,
2780,
3295,
54903,
7912,
2620,
8900,
3191,
2073,
1961,
1885,
1886,
1941,
1759,
1707,
1607,
1741,
1696,
1505,
1386,
1385,
1345,
1329,
1257,
1208,
1125,
1074,
1064,
1052,
1003,
961,
900,
945,
875,
793,
755,
726,
775,
706,
696,
663,
622,
576,
566,
572,
501,
500,
497,
432,
395,
417,
394,
359,
321,
324,
341,
283,
228,
207,
237,
189,
178,
172,
155,
161,
125,
107,
103,
91,
75,
81,
75,
48,
35,
41,
34,
17,
10,
2,
3,
2,
3,
1,
2,
3,
1,
1,
0,
0,
0,
0,
1,
1,
0,
0,
1,
2,
1,
2,
0,
2,
0,
0,
0,
0,
1,
0,
0,
0,
0,
0,
1,
0,
0,
0,
0,
0,
0,
0,
0,
0,
0,
0,
0,
0,
0,
0,
0,
0,
0,
0,
0,
0,
0,
0,
0,
0,
0,
0,
0,
0,
0,
0,
0,
0,
0,
0,
0,
0,
0,
0,
0,
0,
0,
0,
0,
0,
0,
0,
0,
0,
0,
0,
0,
0,
0,
0,
0,
0,
0,
0,
0,
0,
0,
0,
0,
0,
0,
0,
0,
0,
0,
0,
0,
0,
0,
0,
0,
0,
0,
0,
0,
0,
0,
0,
0,
0,
0,
0,
0,
0,
0,
0,
0,
0,
0,
0,
0,
0,
0,
0,
0,
0,
0,
0,
0,
0,
0,
0,
0,
0,
0,
0,
0,
0,
0,
0,
0,
0,
0,
0,
0,
0,
0,
0,
0,
0,
0,
0,
0,
0,
0,
0,
0,
0,
0,
0,
0,
0,
0,
0,
0,
0,
0,
0,
0,
0,
0,
0,
0,
0,
0,
0,
0,
0,
#ENDOFDATA   :