File: N132962/Quantification/15 keV/Mengason MM2/MMM2 Stibnite[7][4].msa
#FORMAT      : EMSA/MAS Spectral Data File
#VERSION     : 1.0
#TITLE       : MMM2 Stibnite[7][all]
#DATE        : 28-SEP-2025
#TIME        : 23:40
#OWNER       : Unknown
#NPOINTS     : 4096
#NCOLUMNS    : 1
#XUNITS      : eV
#YUNITS      : counts
#DATATYPE    : Y
#XPERCHAN    : 9.99778
#OFFSET      : 1.69135
#BEAMKV      : 15
#SIGNALTYPE  : EDS
#ELEVANGLE   : 35
#AZIMANGLE   : 0
#LIVETIME    : 240.204
#REALTIME    : 260.393
#PROBECUR    : 1.21079
#TAUWIND     : 0
#TDEADLYR    : 0
#TACTLYR     : 0.045
#TALWIND     : 0.025
#CHOFFSET    : 0.0
#XLABEL      : Energy (eV)
#YLABEL      : Counts
#XPOSITION   : -14.45327
#YPOSITION   : 2.21107
#ZPOSITION   : 34.11879
#EDSDET      : SD
##SPECIMEN   : MMM2 Stibnite[7][all]
##DET_HASH   : 12273538-fd48-a23f-0a19-f1e6fa85caef
##CALIB_HASH : 6abaa72c-aa41-8738-0be9-f592914732f3
##WORKING    : 15.0 mm
##DET_NAME   : EDAX All
##DET_MODE   : MediumLE
#SPECTRUM    :
23,
2689,
19501,
23536,
10588,
7347,
6347,
5938,
6806,
7427,
8052,
8433,
8742,
9355,
7813,
8474,
55149,
42920,
11279,
5648,
5430,
5334,
5474,
8104,
5390,
14212,
80733,
21687,
29769,
13717,
5938,
8494,
3693,
5365,
3025,
2870,
2798,
2804,
2743,
2773,
2633,
2635,
2640,
2559,
2436,
2369,
2418,
2178,
2159,
2135,
1970,
2060,
1893,
1894,
1851,
1739,
1711,
1650,
1479,
1531,
1413,
1341,
1406,
1271,
1279,
1171,
1193,
1132,
1066,
1046,
990,
997,
948,
872,
856,
809,
788,
730,
727,
620,
663,
612,
543,
567,
481,
479,
448,
402,
410,
369,
312,
303,
282,
267,
235,
249,
219,
167,
153,
146,
119,
117,
90,
59,
68,
42,
25,
10,
0,
2,
6,
2,
3,
2,
2,
0,
2,
0,
2,
1,
1,
3,
1,
2,
1,
5,
1,
1,
4,
0,
0,
1,
0,
1,
1,
0,
0,
0,
0,
0,
0,
0,
0,
0,
0,
0,
1,
0,
0,
0,
0,
0,
0,
0,
0,
0,
0,
0,
0,
0,
0,
0,
0,
0,
0,
0,
0,
0,
0,
0,
0,
0,
0,
0,
0,
0,
0,
0,
0,
0,
0,
0,
0,
0,
0,
0,
0,
0,
0,
0,
0,
0,
0,
0,
0,
0,
0,
0,
0,
0,
0,
0,
0,
0,
0,
0,
0,
0,
0,
0,
0,
0,
0,
0,
0,
0,
0,
0,
0,
0,
0,
0,
0,
0,
0,
0,
0,
0,
0,
0,
0,
0,
0,
0,
0,
0,
0,
0,
0,
0,
0,
0,
0,
0,
0,
0,
0,
0,
0,
0,
0,
0,
0,
0,
0,
0,
0,
0,
0,
0,
0,
0,
0,
0,
0,
0,
0,
0,
0,
0,
0,
0,
0,
0,
0,
0,
0,
0,
0,
0,
0,
0,
0,
0,
0,
0,
0,
0,
0,
0,
0,
0,
0,
0,
#ENDOFDATA   :