File: N132962/Quantification/15 keV/Mengason MM2/MMM2 Manganotantalite[0][4].msa
#FORMAT      : EMSA/MAS Spectral Data File
#VERSION     : 1.0
#TITLE       : MMM2 Manganotantalite[0][all]
#DATE        : 28-SEP-2025
#TIME        : 22:50
#OWNER       : Unknown
#NPOINTS     : 4096
#NCOLUMNS    : 1
#XUNITS      : eV
#YUNITS      : counts
#DATATYPE    : Y
#XPERCHAN    : 9.99778
#OFFSET      : 1.69135
#BEAMKV      : 15
#SIGNALTYPE  : EDS
#ELEVANGLE   : 35
#AZIMANGLE   : 0
#LIVETIME    : 240.154
#REALTIME    : 259.631
#PROBECUR    : 1.2132
#TAUWIND     : 0
#TDEADLYR    : 0
#TACTLYR     : 0.045
#TALWIND     : 0.025
#CHOFFSET    : 0.0
#XLABEL      : Energy (eV)
#YLABEL      : Counts
#XPOSITION   : -22.44807
#YPOSITION   : -0.36888
#ZPOSITION   : 34.11879
#EDSDET      : SD
##SPECIMEN   : MMM2 Manganotantalite[0][all]
##DET_HASH   : 12273538-fd48-a23f-0a19-f1e6fa85caef
##CALIB_HASH : 6abaa72c-aa41-8738-0be9-f592914732f3
##WORKING    : 15.0 mm
##DET_NAME   : EDAX All
##DET_MODE   : MediumLE
#SPECTRUM    :
28,
1103,
18995,
8678,
35198,
10313,
7289,
8075,
8740,
11490,
11850,
10561,
126412,
29435,
10768,
14995,
23312,
7267,
5061,
5299,
4886,
4708,
4822,
4868,
4680,
4690,
4406,
4311,
4278,
4234,
4081,
3928,
4536,
3814,
3695,
3630,
3396,
3353,
3263,
3177,
3057,
3425,
17297,
3874,
2740,
3361,
6102,
2931,
2383,
2282,
2397,
2587,
2265,
2028,
1940,
1918,
1821,
2419,
10892,
3304,
1675,
1629,
1545,
1396,
1314,
1464,
2553,
3454,
1919,
2742,
1257,
1112,
960,
931,
927,
868,
820,
922,
1170,
762,
802,
704,
651,
584,
560,
513,
525,
460,
446,
367,
371,
313,
326,
287,
270,
230,
231,
197,
182,
135,
124,
124,
92,
83,
55,
48,
24,
10,
6,
3,
2,
1,
1,
1,
2,
1,
8,
2,
3,
0,
1,
6,
2,
1,
3,
1,
2,
2,
3,
2,
3,
0,
1,
0,
0,
1,
2,
5,
3,
1,
1,
1,
0,
0,
0,
1,
0,
0,
1,
1,
0,
0,
0,
0,
0,
0,
0,
0,
0,
0,
0,
0,
0,
0,
0,
2,
0,
0,
0,
0,
0,
0,
0,
0,
0,
0,
0,
1,
0,
0,
0,
0,
0,
0,
0,
0,
0,
0,
0,
0,
0,
0,
0,
0,
0,
0,
0,
0,
0,
0,
0,
0,
0,
0,
0,
0,
0,
0,
0,
0,
0,
0,
0,
0,
0,
0,
0,
0,
0,
0,
0,
0,
0,
0,
0,
0,
0,
0,
0,
0,
0,
0,
0,
0,
0,
0,
0,
0,
0,
0,
0,
0,
0,
0,
0,
0,
0,
0,
0,
0,
0,
0,
0,
0,
0,
0,
0,
0,
0,
0,
0,
0,
0,
0,
0,
0,
0,
0,
0,
0,
0,
0,
0,
0,
0,
0,
0,
0,
0,
0,
0,
0,
0,
0,
0,
0,
0,
0,
0,
0,
0,
0,
0,
0,
#ENDOFDATA   :