File: N132962/Quantification/15 keV/Mengason MM2/MMM2 Pyrite[7][4].msa
#FORMAT      : EMSA/MAS Spectral Data File
#VERSION     : 1.0
#TITLE       : MMM2 Pyrite[7][all]
#DATE        : 28-SEP-2025
#TIME        : 20:54
#OWNER       : Unknown
#NPOINTS     : 4096
#NCOLUMNS    : 1
#XUNITS      : eV
#YUNITS      : counts
#DATATYPE    : Y
#XPERCHAN    : 9.99778
#OFFSET      : 1.69135
#BEAMKV      : 15
#SIGNALTYPE  : EDS
#ELEVANGLE   : 35
#AZIMANGLE   : 0
#LIVETIME    : 240.197
#REALTIME    : 259.05
#PROBECUR    : 1.21333
#TAUWIND     : 0
#TDEADLYR    : 0
#TACTLYR     : 0.045
#TALWIND     : 0.025
#CHOFFSET    : 0.0
#XLABEL      : Energy (eV)
#YLABEL      : Counts
#XPOSITION   : -11.59591
#YPOSITION   : -4.4273
#ZPOSITION   : 34.11879
#EDSDET      : SD
##SPECIMEN   : MMM2 Pyrite[7][all]
##D2STDCMP   : Pyrite,(S:53.4528),(Fe:46.5472)
##DET_HASH   : 12273538-fd48-a23f-0a19-f1e6fa85caef
##CALIB_HASH : 6abaa72c-aa41-8738-0be9-f592914732f3
##WORKING    : 15.0 mm
##DET_NAME   : EDAX All
##DET_MODE   : MediumLE
#SPECTRUM    :
22,
1086,
14425,
3586,
18716,
85943,
4799,
4983,
5556,
6052,
6533,
6439,
6679,
6544,
6007,
6511,
91972,
70927,
12691,
3309,
3271,
3328,
3195,
2992,
2900,
2798,
2736,
2631,
2457,
2599,
2364,
2351,
2362,
2880,
2222,
2042,
1955,
1842,
1842,
1717,
1651,
1571,
1519,
1584,
1572,
13271,
37521,
1698,
1256,
1410,
5546,
3275,
1039,
992,
957,
852,
887,
858,
817,
819,
761,
748,
790,
732,
681,
652,
627,
576,
549,
526,
494,
459,
468,
429,
429,
413,
368,
375,
343,
296,
299,
285,
259,
270,
264,
232,
207,
184,
168,
158,
178,
137,
149,
131,
90,
96,
83,
88,
92,
61,
55,
37,
32,
35,
21,
14,
5,
3,
0,
2,
2,
0,
2,
0,
0,
0,
1,
2,
1,
1,
1,
1,
2,
0,
0,
0,
0,
0,
1,
0,
1,
1,
0,
0,
1,
0,
0,
0,
0,
0,
0,
0,
0,
0,
0,
0,
0,
0,
0,
0,
0,
0,
0,
0,
0,
1,
1,
0,
0,
0,
0,
0,
0,
0,
0,
0,
0,
0,
0,
0,
0,
0,
0,
0,
0,
0,
0,
0,
0,
0,
0,
0,
0,
0,
0,
0,
0,
0,
0,
0,
0,
0,
0,
0,
0,
0,
0,
0,
0,
0,
0,
0,
0,
0,
0,
0,
0,
0,
0,
0,
0,
0,
0,
0,
0,
0,
0,
0,
0,
0,
0,
0,
0,
0,
0,
0,
0,
0,
0,
0,
0,
0,
0,
0,
0,
0,
0,
0,
0,
0,
0,
0,
0,
0,
0,
0,
0,
0,
0,
0,
0,
0,
0,
0,
0,
0,
0,
0,
0,
0,
0,
0,
0,
0,
0,
0,
0,
0,
0,
0,
0,
0,
0,
0,
0,
0,
0,
0,
0,
0,
0,
0,
0,
0,
0,
0,
0,
0,
0,
0,
0,
0,
0,
0,
#ENDOFDATA   :