File: N132962/Quantification/15 keV/Mengason MM2/MMM2 Willemite[6][4].msa
#FORMAT      : EMSA/MAS Spectral Data File
#VERSION     : 1.0
#TITLE       : MMM2 Willemite[6][all]
#DATE        : 28-SEP-2025
#TIME        : 23:49
#OWNER       : Unknown
#NPOINTS     : 4096
#NCOLUMNS    : 1
#XUNITS      : eV
#YUNITS      : counts
#DATATYPE    : Y
#XPERCHAN    : 9.99778
#OFFSET      : 1.69135
#BEAMKV      : 15
#SIGNALTYPE  : EDS
#ELEVANGLE   : 35
#AZIMANGLE   : 0
#LIVETIME    : 240.241
#REALTIME    : 257.908
#PROBECUR    : 1.21079
#TAUWIND     : 0
#TDEADLYR    : 0
#TACTLYR     : 0.045
#TALWIND     : 0.025
#CHOFFSET    : 0.0
#XLABEL      : Energy (eV)
#YLABEL      : Counts
#XPOSITION   : -11.64009
#YPOSITION   : 2.21549
#ZPOSITION   : 34.11879
#EDSDET      : SD
##SPECIMEN   : MMM2 Willemite[6][all]
##DET_HASH   : 12273538-fd48-a23f-0a19-f1e6fa85caef
##CALIB_HASH : 6abaa72c-aa41-8738-0be9-f592914732f3
##WORKING    : 15.0 mm
##DET_NAME   : EDAX All
##DET_MODE   : MediumLE
#SPECTRUM    :
25,
349,
15330,
9388,
59241,
6634,
14529,
163094,
7840,
5163,
4332,
5483,
27083,
14614,
4036,
4003,
4265,
3785,
3785,
3636,
3604,
3443,
3349,
3259,
3174,
2931,
2882,
2774,
2680,
2516,
2428,
2321,
2191,
2244,
2080,
2020,
2023,
1854,
1769,
1747,
1662,
1775,
7488,
1924,
1423,
1432,
1992,
1502,
1234,
1212,
1122,
1059,
1054,
1027,
931,
914,
915,
887,
838,
799,
963,
8282,
13356,
928,
659,
628,
667,
677,
2433,
1389,
500,
459,
455,
417,
449,
382,
368,
354,
312,
347,
277,
292,
268,
258,
227,
216,
187,
204,
156,
167,
166,
128,
133,
112,
105,
90,
76,
89,
62,
61,
56,
33,
42,
41,
26,
15,
3,
3,
0,
0,
0,
1,
0,
2,
0,
0,
1,
0,
1,
0,
1,
0,
0,
5,
1,
1,
1,
0,
0,
0,
0,
0,
2,
0,
0,
0,
0,
0,
0,
0,
0,
0,
1,
0,
1,
0,
0,
0,
1,
0,
0,
0,
0,
0,
0,
0,
0,
0,
0,
0,
0,
0,
0,
0,
0,
0,
0,
0,
0,
0,
0,
0,
0,
0,
0,
0,
0,
0,
0,
0,
0,
0,
0,
0,
0,
0,
0,
0,
0,
0,
0,
0,
0,
0,
0,
0,
0,
0,
0,
0,
0,
0,
0,
0,
0,
0,
0,
0,
0,
0,
0,
0,
0,
0,
0,
0,
0,
0,
0,
0,
0,
0,
0,
0,
0,
0,
0,
0,
0,
0,
0,
0,
0,
0,
0,
0,
0,
0,
0,
0,
0,
0,
0,
0,
0,
0,
0,
0,
0,
0,
0,
0,
0,
0,
0,
0,
0,
0,
0,
0,
0,
0,
0,
0,
0,
0,
0,
0,
0,
0,
0,
0,
0,
0,
0,
0,
0,
0,
0,
0,
0,
0,
0,
0,
0,
0,
0,
0,
0,
0,
0,
0,
0,
0,
#ENDOFDATA   :