File: N132962/Quantification/15 keV/Mengason MM2/MMM2 Pyrite[4][4].msa
#FORMAT      : EMSA/MAS Spectral Data File
#VERSION     : 1.0
#TITLE       : MMM2 Pyrite[4][all]
#DATE        : 28-SEP-2025
#TIME        : 20:50
#OWNER       : Unknown
#NPOINTS     : 4096
#NCOLUMNS    : 1
#XUNITS      : eV
#YUNITS      : counts
#DATATYPE    : Y
#XPERCHAN    : 9.99778
#OFFSET      : 1.69135
#BEAMKV      : 15
#SIGNALTYPE  : EDS
#ELEVANGLE   : 35
#AZIMANGLE   : 0
#LIVETIME    : 240.162
#REALTIME    : 258.987
#PROBECUR    : 1.21333
#TAUWIND     : 0
#TDEADLYR    : 0
#TACTLYR     : 0.045
#TALWIND     : 0.025
#CHOFFSET    : 0.0
#XLABEL      : Energy (eV)
#YLABEL      : Counts
#XPOSITION   : -11.66347
#YPOSITION   : -4.38606
#ZPOSITION   : 34.11879
#EDSDET      : SD
##SPECIMEN   : MMM2 Pyrite[4][all]
##D2STDCMP   : Pyrite,(S:53.4528),(Fe:46.5472)
##DET_HASH   : 12273538-fd48-a23f-0a19-f1e6fa85caef
##CALIB_HASH : 6abaa72c-aa41-8738-0be9-f592914732f3
##WORKING    : 15.0 mm
##DET_NAME   : EDAX All
##DET_MODE   : MediumLE
#SPECTRUM    :
17,
1060,
14184,
3626,
18868,
85641,
4719,
4960,
5587,
6018,
6509,
6441,
6784,
6682,
6070,
6313,
92172,
70844,
12809,
3349,
3164,
3384,
3162,
2826,
2895,
2818,
2743,
2638,
2416,
2623,
2377,
2317,
2222,
2880,
2136,
2108,
1911,
1854,
1849,
1756,
1663,
1569,
1597,
1575,
1602,
12855,
37765,
1731,
1333,
1410,
5446,
3176,
1001,
959,
987,
944,
890,
805,
844,
790,
740,
739,
811,
679,
590,
605,
579,
598,
566,
531,
463,
479,
454,
430,
412,
360,
394,
335,
325,
359,
282,
295,
251,
261,
249,
231,
217,
193,
205,
181,
174,
151,
136,
120,
120,
109,
73,
106,
77,
62,
51,
49,
37,
24,
30,
5,
8,
2,
0,
1,
3,
3,
1,
0,
1,
0,
0,
1,
0,
0,
1,
0,
2,
1,
0,
0,
1,
0,
1,
1,
0,
1,
0,
0,
1,
1,
0,
0,
0,
0,
0,
1,
0,
0,
0,
1,
0,
0,
0,
1,
0,
0,
0,
0,
0,
0,
0,
0,
0,
0,
0,
0,
0,
0,
0,
0,
0,
0,
0,
0,
0,
0,
0,
0,
0,
0,
0,
0,
0,
0,
0,
0,
0,
0,
0,
0,
0,
0,
0,
0,
0,
0,
0,
0,
0,
0,
0,
0,
0,
0,
0,
0,
0,
0,
0,
0,
0,
0,
0,
0,
0,
0,
0,
0,
0,
0,
0,
0,
0,
0,
0,
0,
0,
0,
0,
0,
0,
0,
0,
0,
0,
0,
0,
0,
0,
0,
0,
0,
0,
0,
0,
0,
0,
0,
0,
0,
0,
0,
0,
0,
0,
0,
0,
0,
0,
0,
0,
0,
0,
0,
0,
0,
0,
0,
0,
0,
0,
0,
0,
0,
0,
0,
0,
0,
0,
0,
0,
0,
0,
0,
0,
0,
0,
0,
0,
0,
0,
0,
0,
0,
0,
0,
0,
0,
#ENDOFDATA   :