File: N132962/Quantification/15 keV/Mengason MM2/MMM2 SrTiO3[5][4].msa
#FORMAT      : EMSA/MAS Spectral Data File
#VERSION     : 1.0
#TITLE       : MMM2 SrTiO3[5][all]
#DATE        : 29-SEP-2025
#TIME        : 00:19
#OWNER       : Unknown
#NPOINTS     : 4096
#NCOLUMNS    : 1
#XUNITS      : eV
#YUNITS      : counts
#DATATYPE    : Y
#XPERCHAN    : 9.99778
#OFFSET      : 1.69135
#BEAMKV      : 15
#SIGNALTYPE  : EDS
#ELEVANGLE   : 35
#AZIMANGLE   : 0
#LIVETIME    : 240.2
#REALTIME    : 256.55
#PROBECUR    : 1.21151
#TAUWIND     : 0
#TDEADLYR    : 0
#TACTLYR     : 0.045
#TALWIND     : 0.025
#CHOFFSET    : 0.0
#XLABEL      : Energy (eV)
#YLABEL      : Counts
#XPOSITION   : -15.16214
#YPOSITION   : 4.51987
#ZPOSITION   : 34.11879
#EDSDET      : SD
##SPECIMEN   : MMM2 SrTiO3[5][all]
##D2STDCMP   : SrTiO3,(O:26.1592),(Ti:26.0877),(Sr:47.7532)
##DET_HASH   : 12273538-fd48-a23f-0a19-f1e6fa85caef
##CALIB_HASH : 6abaa72c-aa41-8738-0be9-f592914732f3
##WORKING    : 15.0 mm
##DET_NAME   : EDAX All
##DET_MODE   : MediumLE
#SPECTRUM    :
16,
627,
15858,
13453,
23309,
4168,
5421,
6096,
6704,
7302,
7657,
11703,
11595,
201539,
16142,
4285,
4458,
3965,
3841,
3921,
4161,
3633,
3591,
3596,
3444,
3340,
3476,
3149,
3043,
2990,
2869,
3331,
54518,
7970,
2693,
9040,
3083,
2010,
2002,
2009,
1897,
1775,
1806,
1696,
1641,
1755,
1638,
1538,
1421,
1389,
1326,
1283,
1248,
1284,
1194,
1125,
1052,
980,
1021,
980,
900,
827,
884,
859,
822,
789,
744,
769,
701,
691,
647,
560,
558,
551,
483,
469,
462,
473,
427,
394,
418,
320,
361,
306,
286,
275,
275,
251,
220,
218,
221,
188,
177,
148,
129,
146,
114,
95,
72,
86,
63,
65,
49,
31,
28,
14,
7,
3,
2,
1,
1,
1,
1,
0,
5,
1,
2,
1,
1,
0,
1,
1,
0,
0,
0,
1,
0,
1,
0,
0,
0,
0,
0,
0,
0,
0,
0,
0,
0,
0,
0,
1,
0,
0,
0,
0,
0,
0,
0,
0,
0,
0,
0,
0,
0,
0,
0,
0,
0,
0,
0,
0,
0,
0,
0,
0,
0,
0,
0,
0,
0,
0,
0,
0,
0,
0,
0,
0,
0,
0,
0,
0,
0,
0,
0,
0,
0,
0,
0,
0,
0,
0,
0,
0,
0,
0,
0,
0,
0,
0,
0,
0,
0,
0,
0,
0,
0,
0,
0,
0,
0,
0,
0,
0,
0,
0,
0,
0,
0,
0,
0,
0,
0,
0,
0,
0,
0,
0,
0,
0,
0,
0,
0,
0,
0,
0,
0,
0,
0,
0,
0,
0,
0,
0,
0,
0,
0,
0,
0,
0,
0,
0,
0,
0,
0,
0,
0,
0,
0,
0,
0,
0,
0,
0,
0,
0,
0,
0,
0,
0,
0,
0,
0,
0,
0,
0,
0,
0,
0,
0,
0,
0,
0,
0,
0,
0,
0,
0,
0,
0,
0,
0,
0,
0,
#ENDOFDATA   :