File: N132962/Quantification/15 keV/Mengason MM2/MMM2 Pyrite[1][4].msa
#FORMAT      : EMSA/MAS Spectral Data File
#VERSION     : 1.0
#TITLE       : MMM2 Pyrite[1][all]
#DATE        : 28-SEP-2025
#TIME        : 20:47
#OWNER       : Unknown
#NPOINTS     : 4096
#NCOLUMNS    : 1
#XUNITS      : eV
#YUNITS      : counts
#DATATYPE    : Y
#XPERCHAN    : 9.99778
#OFFSET      : 1.69135
#BEAMKV      : 15
#SIGNALTYPE  : EDS
#ELEVANGLE   : 35
#AZIMANGLE   : 0
#LIVETIME    : 240.206
#REALTIME    : 259.032
#PROBECUR    : 1.21333
#TAUWIND     : 0
#TDEADLYR    : 0
#TACTLYR     : 0.045
#TALWIND     : 0.025
#CHOFFSET    : 0.0
#XLABEL      : Energy (eV)
#YLABEL      : Counts
#XPOSITION   : -11.59572
#YPOSITION   : -4.40353
#ZPOSITION   : 34.11879
#EDSDET      : SD
##SPECIMEN   : MMM2 Pyrite[1][all]
##D2STDCMP   : Pyrite,(S:53.4528),(Fe:46.5472)
##DET_HASH   : 12273538-fd48-a23f-0a19-f1e6fa85caef
##CALIB_HASH : 6abaa72c-aa41-8738-0be9-f592914732f3
##WORKING    : 15.0 mm
##DET_NAME   : EDAX All
##DET_MODE   : MediumLE
#SPECTRUM    :
21,
1042,
14761,
3796,
19186,
84891,
4719,
4855,
5531,
6097,
6392,
6459,
6640,
6523,
6021,
6433,
91688,
70149,
12793,
3238,
3253,
3347,
3174,
2873,
2982,
2716,
2752,
2678,
2552,
2521,
2442,
2332,
2221,
2835,
2078,
2014,
1961,
1856,
1779,
1744,
1681,
1634,
1596,
1556,
1581,
12969,
37785,
1652,
1355,
1391,
5513,
3211,
964,
902,
920,
813,
896,
839,
807,
723,
811,
694,
850,
735,
627,
605,
588,
607,
579,
506,
462,
482,
497,
438,
432,
424,
325,
349,
342,
329,
301,
290,
305,
266,
231,
213,
200,
179,
178,
151,
158,
190,
139,
106,
107,
107,
99,
78,
68,
41,
51,
33,
32,
33,
21,
11,
8,
2,
3,
2,
1,
4,
1,
0,
0,
1,
0,
0,
2,
0,
0,
2,
0,
0,
1,
1,
1,
2,
0,
0,
1,
0,
0,
0,
0,
0,
1,
1,
0,
0,
0,
0,
0,
1,
0,
0,
0,
0,
0,
1,
0,
0,
0,
0,
0,
0,
0,
0,
0,
0,
0,
0,
0,
0,
0,
0,
0,
0,
0,
0,
0,
0,
0,
0,
0,
0,
0,
0,
0,
0,
0,
0,
0,
0,
0,
0,
0,
0,
0,
0,
0,
0,
0,
0,
0,
0,
0,
0,
0,
0,
0,
0,
0,
0,
0,
0,
0,
0,
0,
0,
0,
0,
0,
0,
0,
0,
0,
0,
0,
0,
0,
0,
0,
0,
0,
0,
0,
0,
0,
0,
0,
0,
0,
0,
0,
0,
0,
0,
0,
0,
0,
0,
0,
0,
0,
0,
0,
0,
0,
0,
0,
0,
0,
0,
0,
0,
0,
0,
0,
0,
0,
0,
0,
0,
0,
0,
0,
0,
0,
0,
0,
0,
0,
0,
0,
0,
0,
0,
0,
0,
0,
0,
0,
0,
0,
0,
0,
0,
0,
0,
0,
0,
0,
0,
#ENDOFDATA   :