File: N132962/Quantification/15 keV/Mengason MM2/MMM2 Stibnite[3][4].msa
#FORMAT      : EMSA/MAS Spectral Data File
#VERSION     : 1.0
#TITLE       : MMM2 Stibnite[3][all]
#DATE        : 28-SEP-2025
#TIME        : 23:35
#OWNER       : Unknown
#NPOINTS     : 4096
#NCOLUMNS    : 1
#XUNITS      : eV
#YUNITS      : counts
#DATATYPE    : Y
#XPERCHAN    : 9.99778
#OFFSET      : 1.69135
#BEAMKV      : 15
#SIGNALTYPE  : EDS
#ELEVANGLE   : 35
#AZIMANGLE   : 0
#LIVETIME    : 240.183
#REALTIME    : 260.3904
#PROBECUR    : 1.21079
#TAUWIND     : 0
#TDEADLYR    : 0
#TACTLYR     : 0.045
#TALWIND     : 0.025
#CHOFFSET    : 0.0
#XLABEL      : Energy (eV)
#YLABEL      : Counts
#XPOSITION   : -14.5099
#YPOSITION   : 2.24599
#ZPOSITION   : 34.11879
#EDSDET      : SD
##SPECIMEN   : MMM2 Stibnite[3][all]
##DET_HASH   : 12273538-fd48-a23f-0a19-f1e6fa85caef
##CALIB_HASH : 6abaa72c-aa41-8738-0be9-f592914732f3
##WORKING    : 15.0 mm
##DET_NAME   : EDAX All
##DET_MODE   : MediumLE
#SPECTRUM    :
19,
2802,
19780,
23851,
10629,
7342,
6329,
5950,
6896,
7626,
7954,
8493,
8512,
9523,
7849,
8214,
55057,
42987,
11238,
5536,
5499,
5333,
5354,
8164,
5385,
14413,
81910,
22266,
30042,
13712,
6173,
8208,
3597,
5391,
3082,
2920,
2820,
2750,
2878,
2763,
2568,
2541,
2625,
2401,
2441,
2292,
2427,
2223,
2135,
2062,
2056,
2002,
2028,
1858,
1805,
1820,
1615,
1591,
1591,
1551,
1423,
1361,
1344,
1342,
1254,
1201,
1149,
1127,
1043,
1065,
1035,
995,
929,
907,
839,
784,
764,
696,
652,
654,
647,
616,
594,
538,
539,
435,
443,
461,
377,
376,
338,
284,
272,
243,
246,
226,
201,
169,
151,
134,
115,
102,
94,
76,
58,
29,
17,
7,
0,
1,
1,
6,
4,
3,
3,
1,
3,
3,
1,
0,
1,
1,
0,
3,
1,
2,
3,
0,
0,
0,
1,
1,
1,
1,
0,
0,
1,
0,
0,
0,
1,
1,
0,
1,
0,
0,
0,
0,
1,
0,
0,
0,
1,
0,
0,
0,
0,
0,
0,
0,
0,
0,
0,
0,
0,
0,
1,
0,
0,
0,
0,
0,
0,
0,
0,
0,
0,
0,
0,
0,
0,
0,
0,
1,
0,
0,
0,
0,
0,
0,
0,
0,
0,
0,
0,
0,
0,
0,
0,
0,
0,
0,
0,
0,
0,
0,
0,
0,
0,
0,
0,
0,
0,
0,
0,
0,
0,
0,
0,
0,
0,
0,
0,
0,
0,
0,
0,
0,
0,
0,
0,
0,
0,
0,
0,
0,
0,
0,
0,
0,
0,
0,
0,
0,
0,
0,
0,
0,
0,
0,
0,
0,
0,
0,
0,
0,
0,
0,
0,
0,
0,
0,
0,
0,
0,
0,
0,
0,
0,
0,
0,
0,
0,
0,
0,
0,
0,
0,
0,
0,
0,
0,
0,
0,
0,
0,
0,
0,
0,
0,
0,
0,
0,
0,
#ENDOFDATA   :