File: N132962/Quantification/15 keV/Mengason MM2/MMM2 Stibnite[0][4].msa
#FORMAT      : EMSA/MAS Spectral Data File
#VERSION     : 1.0
#TITLE       : MMM2 Stibnite[0][all]
#DATE        : 28-SEP-2025
#TIME        : 23:32
#OWNER       : Unknown
#NPOINTS     : 4096
#NCOLUMNS    : 1
#XUNITS      : eV
#YUNITS      : counts
#DATATYPE    : Y
#XPERCHAN    : 9.99778
#OFFSET      : 1.69135
#BEAMKV      : 15
#SIGNALTYPE  : EDS
#ELEVANGLE   : 35
#AZIMANGLE   : 0
#LIVETIME    : 240.186
#REALTIME    : 260.3936
#PROBECUR    : 1.21079
#TAUWIND     : 0
#TDEADLYR    : 0
#TACTLYR     : 0.045
#TALWIND     : 0.025
#CHOFFSET    : 0.0
#XLABEL      : Energy (eV)
#YLABEL      : Counts
#XPOSITION   : -14.45175
#YPOSITION   : 2.2513
#ZPOSITION   : 34.11879
#EDSDET      : SD
##SPECIMEN   : MMM2 Stibnite[0][all]
##DET_HASH   : 12273538-fd48-a23f-0a19-f1e6fa85caef
##CALIB_HASH : 6abaa72c-aa41-8738-0be9-f592914732f3
##WORKING    : 15.0 mm
##DET_NAME   : EDAX All
##DET_MODE   : MediumLE
#SPECTRUM    :
17,
2780,
19670,
23724,
10583,
7328,
6376,
6114,
6624,
7509,
7907,
8312,
8577,
9553,
7761,
8253,
54686,
42764,
11137,
5684,
5461,
5346,
5317,
8196,
5503,
14375,
80994,
21980,
29472,
13981,
6226,
8490,
3704,
5322,
3053,
2821,
2807,
2749,
2800,
2730,
2509,
2551,
2599,
2535,
2540,
2310,
2402,
2125,
2071,
2020,
1985,
1979,
1855,
1858,
1785,
1785,
1614,
1585,
1585,
1472,
1396,
1360,
1351,
1355,
1199,
1262,
1186,
1165,
1076,
1028,
1030,
984,
926,
923,
800,
825,
725,
771,
711,
674,
664,
641,
557,
523,
537,
453,
447,
447,
380,
377,
372,
343,
284,
280,
251,
210,
199,
153,
178,
132,
137,
115,
87,
79,
62,
43,
22,
6,
4,
2,
2,
2,
3,
5,
3,
3,
0,
3,
0,
0,
1,
2,
2,
2,
4,
4,
2,
2,
0,
0,
0,
1,
0,
0,
0,
0,
0,
0,
0,
0,
0,
0,
0,
1,
0,
0,
1,
0,
3,
0,
0,
0,
0,
0,
0,
1,
0,
1,
0,
1,
0,
1,
0,
0,
0,
0,
1,
1,
0,
0,
0,
0,
0,
0,
0,
0,
0,
0,
0,
0,
0,
0,
0,
0,
0,
0,
0,
0,
0,
0,
0,
0,
0,
0,
0,
0,
0,
0,
0,
0,
0,
0,
0,
0,
0,
0,
0,
0,
0,
0,
0,
0,
0,
0,
0,
0,
0,
0,
0,
0,
0,
0,
0,
0,
0,
0,
0,
0,
0,
0,
0,
0,
0,
0,
0,
0,
0,
0,
0,
0,
0,
0,
0,
0,
0,
0,
0,
0,
0,
0,
0,
0,
0,
0,
0,
0,
0,
0,
0,
0,
0,
0,
0,
0,
0,
0,
0,
0,
0,
0,
0,
0,
0,
0,
0,
0,
0,
0,
0,
0,
0,
0,
0,
0,
0,
0,
0,
0,
0,
0,
0,
0,
0,
0,
#ENDOFDATA   :