File: N132962/Quantification/15 keV/Mengason MM2/MMM2 Stibnite[6][4].msa
#FORMAT      : EMSA/MAS Spectral Data File
#VERSION     : 1.0
#TITLE       : MMM2 Stibnite[6][all]
#DATE        : 28-SEP-2025
#TIME        : 23:39
#OWNER       : Unknown
#NPOINTS     : 4096
#NCOLUMNS    : 1
#XUNITS      : eV
#YUNITS      : counts
#DATATYPE    : Y
#XPERCHAN    : 9.99778
#OFFSET      : 1.69135
#BEAMKV      : 15
#SIGNALTYPE  : EDS
#ELEVANGLE   : 35
#AZIMANGLE   : 0
#LIVETIME    : 240.237
#REALTIME    : 260.455
#PROBECUR    : 1.21079
#TAUWIND     : 0
#TDEADLYR    : 0
#TACTLYR     : 0.045
#TALWIND     : 0.025
#CHOFFSET    : 0.0
#XLABEL      : Energy (eV)
#YLABEL      : Counts
#XPOSITION   : -14.43413
#YPOSITION   : 2.29201
#ZPOSITION   : 34.11879
#EDSDET      : SD
##SPECIMEN   : MMM2 Stibnite[6][all]
##DET_HASH   : 12273538-fd48-a23f-0a19-f1e6fa85caef
##CALIB_HASH : 6abaa72c-aa41-8738-0be9-f592914732f3
##WORKING    : 15.0 mm
##DET_NAME   : EDAX All
##DET_MODE   : MediumLE
#SPECTRUM    :
23,
2759,
19458,
23457,
10627,
7341,
6265,
6000,
6830,
7386,
7995,
8327,
8591,
9368,
7753,
8144,
55210,
43132,
11236,
5643,
5446,
5439,
5525,
8055,
5449,
14374,
81224,
21781,
29730,
13875,
6028,
8536,
3674,
5292,
3082,
2932,
2808,
2830,
2788,
2762,
2572,
2587,
2701,
2491,
2476,
2389,
2339,
2175,
2078,
1998,
2054,
1951,
1842,
1872,
1759,
1691,
1623,
1628,
1466,
1497,
1473,
1398,
1342,
1285,
1237,
1225,
1186,
1107,
1047,
1078,
995,
1012,
897,
905,
823,
813,
768,
748,
731,
633,
650,
641,
579,
533,
506,
494,
482,
403,
419,
342,
308,
308,
303,
259,
240,
222,
222,
177,
176,
142,
118,
97,
88,
70,
64,
39,
29,
7,
5,
3,
3,
4,
4,
1,
2,
0,
1,
2,
1,
4,
0,
0,
2,
1,
0,
1,
0,
2,
0,
2,
1,
1,
0,
1,
1,
0,
0,
0,
0,
2,
1,
0,
0,
0,
0,
0,
0,
0,
0,
1,
0,
0,
0,
0,
0,
0,
0,
0,
0,
0,
0,
0,
0,
1,
0,
0,
0,
0,
0,
1,
0,
0,
0,
0,
0,
0,
0,
0,
0,
0,
0,
0,
0,
0,
0,
0,
0,
0,
0,
0,
0,
0,
0,
0,
0,
0,
0,
0,
0,
0,
0,
0,
0,
0,
0,
0,
0,
0,
0,
0,
0,
0,
0,
0,
0,
0,
0,
0,
0,
0,
0,
0,
0,
0,
0,
0,
0,
0,
0,
0,
0,
0,
0,
0,
0,
0,
0,
0,
0,
0,
0,
0,
0,
0,
0,
0,
0,
0,
0,
0,
0,
0,
0,
0,
0,
0,
0,
0,
0,
0,
0,
0,
0,
0,
0,
0,
0,
0,
0,
0,
0,
0,
0,
0,
0,
0,
0,
0,
0,
0,
0,
0,
0,
0,
0,
0,
0,
0,
0,
0,
0,
0,
0,
0,
#ENDOFDATA   :