File: N132962/Quantification/15 keV/Mengason MM2/MMM2 Pentlandite[2][4].msa
#FORMAT      : EMSA/MAS Spectral Data File
#VERSION     : 1.0
#TITLE       : MMM2 Pentlandite[2][all]
#DATE        : 28-SEP-2025
#TIME        : 21:40
#OWNER       : Unknown
#NPOINTS     : 4096
#NCOLUMNS    : 1
#XUNITS      : eV
#YUNITS      : counts
#DATATYPE    : Y
#XPERCHAN    : 9.99778
#OFFSET      : 1.69135
#BEAMKV      : 15
#SIGNALTYPE  : EDS
#ELEVANGLE   : 35
#AZIMANGLE   : 0
#LIVETIME    : 240.236
#REALTIME    : 257.835
#PROBECUR    : 1.21217
#TAUWIND     : 0
#TDEADLYR    : 0
#TACTLYR     : 0.045
#TALWIND     : 0.025
#CHOFFSET    : 0.0
#XLABEL      : Energy (eV)
#YLABEL      : Counts
#XPOSITION   : -15.76983
#YPOSITION   : -2.33666
#ZPOSITION   : 34.11879
#EDSDET      : SD
##SPECIMEN   : MMM2 Pentlandite[2][all]
##DET_HASH   : 12273538-fd48-a23f-0a19-f1e6fa85caef
##CALIB_HASH : 6abaa72c-aa41-8738-0be9-f592914732f3
##WORKING    : 15.0 mm
##DET_NAME   : EDAX All
##DET_MODE   : MediumLE
#SPECTRUM    :
24,
627,
15369,
4794,
16499,
67087,
87981,
4698,
4651,
5479,
5831,
5957,
6201,
6234,
5737,
5957,
55994,
43217,
9683,
3867,
3805,
3764,
3720,
3560,
3329,
3232,
3112,
3029,
2969,
2941,
2761,
2602,
2572,
2730,
2432,
2344,
2253,
2159,
2052,
1945,
1929,
1949,
1765,
1812,
1799,
9930,
27968,
1784,
1488,
1740,
4594,
2879,
1551,
17603,
8692,
1186,
998,
1078,
1321,
3813,
1209,
875,
803,
773,
720,
679,
660,
673,
664,
677,
661,
582,
535,
508,
515,
527,
420,
432,
392,
418,
327,
368,
315,
298,
288,
286,
241,
244,
218,
217,
168,
181,
180,
152,
125,
132,
103,
101,
68,
82,
63,
46,
41,
29,
36,
13,
8,
12,
3,
3,
0,
3,
2,
0,
0,
2,
1,
1,
1,
1,
0,
1,
3,
1,
0,
0,
0,
1,
0,
0,
0,
0,
1,
0,
0,
1,
1,
2,
0,
0,
0,
0,
0,
2,
0,
0,
0,
0,
1,
0,
0,
0,
0,
0,
0,
0,
0,
0,
0,
0,
0,
0,
0,
0,
0,
0,
1,
0,
0,
0,
0,
0,
0,
0,
0,
0,
0,
0,
0,
0,
0,
0,
0,
0,
0,
0,
0,
0,
0,
0,
0,
0,
0,
0,
0,
0,
0,
0,
0,
0,
0,
0,
0,
0,
0,
0,
0,
0,
0,
0,
0,
0,
0,
0,
0,
0,
0,
0,
0,
0,
0,
0,
0,
0,
0,
0,
0,
0,
0,
0,
0,
0,
0,
0,
0,
0,
0,
0,
0,
0,
0,
0,
0,
0,
0,
0,
0,
0,
0,
0,
0,
0,
0,
0,
0,
0,
0,
0,
0,
0,
0,
0,
0,
0,
0,
0,
0,
0,
0,
0,
0,
0,
0,
0,
0,
0,
0,
0,
0,
0,
0,
0,
0,
0,
0,
0,
0,
0,
0,
0,
0,
0,
0,
0,
#ENDOFDATA   :