File: N132962/Quantification/15 keV/Mengason MM2/MMM2 Uvarovite[2][4].msa
#FORMAT      : EMSA/MAS Spectral Data File
#VERSION     : 1.0
#TITLE       : MMM2 Uvarovite[2][all]
#DATE        : 28-SEP-2025
#TIME        : 22:11
#OWNER       : Unknown
#NPOINTS     : 4096
#NCOLUMNS    : 1
#XUNITS      : eV
#YUNITS      : counts
#DATATYPE    : Y
#XPERCHAN    : 9.99778
#OFFSET      : 1.69135
#BEAMKV      : 15
#SIGNALTYPE  : EDS
#ELEVANGLE   : 35
#AZIMANGLE   : 0
#LIVETIME    : 240.189
#REALTIME    : 254.372
#PROBECUR    : 1.21223
#TAUWIND     : 0
#TDEADLYR    : 0
#TACTLYR     : 0.045
#TALWIND     : 0.025
#CHOFFSET    : 0.0
#XLABEL      : Energy (eV)
#YLABEL      : Counts
#XPOSITION   : -9.28425
#YPOSITION   : -0.12136
#ZPOSITION   : 34.11879
#EDSDET      : SD
##SPECIMEN   : MMM2 Uvarovite[2][all]
##DET_HASH   : 12273538-fd48-a23f-0a19-f1e6fa85caef
##CALIB_HASH : 6abaa72c-aa41-8738-0be9-f592914732f3
##WORKING    : 15.0 mm
##DET_NAME   : EDAX All
##DET_MODE   : MediumLE
#SPECTRUM    :
29,
276,
19217,
6538,
47620,
3801,
3492,
3926,
4476,
5120,
6760,
13861,
42399,
20440,
4371,
3426,
3658,
2989,
3060,
2859,
2794,
2697,
2587,
2532,
2423,
2789,
45532,
15614,
3730,
8024,
1873,
1545,
3138,
1550,
1439,
1790,
1379,
1279,
5892,
13888,
1140,
1096,
2352,
1953,
931,
1137,
1498,
891,
780,
759,
833,
757,
730,
717,
616,
632,
585,
544,
554,
515,
502,
502,
466,
445,
416,
416,
373,
398,
362,
287,
311,
308,
255,
257,
278,
234,
233,
237,
232,
176,
190,
164,
164,
146,
138,
161,
129,
119,
109,
88,
105,
77,
72,
66,
65,
59,
62,
38,
38,
38,
39,
19,
24,
30,
14,
11,
4,
1,
0,
1,
1,
0,
1,
0,
1,
1,
0,
0,
0,
0,
0,
1,
0,
0,
0,
0,
0,
0,
0,
0,
0,
0,
0,
1,
0,
0,
0,
0,
0,
0,
0,
0,
0,
0,
0,
1,
0,
0,
0,
0,
0,
0,
0,
0,
0,
0,
0,
0,
0,
0,
0,
0,
0,
0,
0,
0,
0,
0,
0,
0,
0,
0,
0,
0,
0,
0,
0,
0,
0,
0,
0,
0,
0,
0,
0,
0,
0,
0,
0,
0,
0,
0,
0,
0,
0,
0,
0,
0,
0,
0,
0,
0,
0,
0,
0,
0,
0,
0,
0,
0,
0,
0,
0,
0,
0,
0,
0,
0,
0,
0,
0,
0,
0,
0,
0,
0,
0,
0,
0,
0,
0,
0,
0,
0,
0,
0,
0,
0,
0,
0,
0,
0,
0,
0,
0,
0,
0,
0,
0,
0,
0,
0,
0,
0,
0,
0,
0,
0,
0,
0,
0,
0,
0,
0,
0,
0,
0,
0,
0,
0,
0,
0,
0,
0,
0,
0,
0,
0,
0,
0,
0,
0,
0,
0,
0,
0,
0,
0,
0,
0,
0,
0,
0,
0,
#ENDOFDATA   :