File: N132962/Quantification/15 keV/Mengason MM2/MMM2 Manganotantalite[4][4].msa
#FORMAT      : EMSA/MAS Spectral Data File
#VERSION     : 1.0
#TITLE       : MMM2 Manganotantalite[4][all]
#DATE        : 28-SEP-2025
#TIME        : 22:55
#OWNER       : Unknown
#NPOINTS     : 4096
#NCOLUMNS    : 1
#XUNITS      : eV
#YUNITS      : counts
#DATATYPE    : Y
#XPERCHAN    : 9.99778
#OFFSET      : 1.69135
#BEAMKV      : 15
#SIGNALTYPE  : EDS
#ELEVANGLE   : 35
#AZIMANGLE   : 0
#LIVETIME    : 240.232
#REALTIME    : 259.695
#PROBECUR    : 1.2132
#TAUWIND     : 0
#TDEADLYR    : 0
#TACTLYR     : 0.045
#TALWIND     : 0.025
#CHOFFSET    : 0.0
#XLABEL      : Energy (eV)
#YLABEL      : Counts
#XPOSITION   : -22.38373
#YPOSITION   : -0.36888
#ZPOSITION   : 34.11879
#EDSDET      : SD
##SPECIMEN   : MMM2 Manganotantalite[4][all]
##DET_HASH   : 12273538-fd48-a23f-0a19-f1e6fa85caef
##CALIB_HASH : 6abaa72c-aa41-8738-0be9-f592914732f3
##WORKING    : 15.0 mm
##DET_NAME   : EDAX All
##DET_MODE   : MediumLE
#SPECTRUM    :
23,
1155,
19128,
8603,
35652,
10549,
7088,
8087,
8659,
11486,
11675,
10490,
125346,
29109,
10987,
15340,
24039,
7342,
5180,
5340,
4958,
4825,
4783,
4592,
4720,
4561,
4422,
4315,
4116,
4119,
3956,
3905,
4581,
3745,
3653,
3669,
3472,
3304,
3295,
3124,
3162,
3433,
17357,
3910,
2643,
3265,
6141,
2943,
2290,
2307,
2482,
2761,
2204,
2010,
1902,
1900,
1903,
2406,
10536,
3249,
1679,
1508,
1395,
1423,
1321,
1368,
2423,
3509,
1942,
2715,
1359,
1085,
981,
910,
830,
898,
812,
939,
1127,
778,
785,
725,
626,
637,
559,
505,
446,
491,
419,
381,
384,
334,
337,
298,
263,
237,
214,
182,
170,
165,
143,
109,
79,
60,
54,
48,
24,
4,
3,
6,
5,
6,
3,
2,
1,
0,
2,
1,
1,
0,
5,
1,
2,
1,
2,
3,
2,
3,
1,
4,
0,
3,
0,
3,
0,
2,
0,
1,
0,
1,
0,
1,
0,
0,
0,
0,
1,
0,
1,
0,
0,
0,
0,
1,
0,
0,
0,
0,
0,
0,
0,
0,
0,
1,
0,
0,
0,
0,
0,
0,
0,
0,
1,
0,
0,
0,
0,
0,
0,
0,
0,
0,
0,
0,
0,
0,
0,
0,
0,
0,
0,
0,
0,
0,
0,
0,
0,
0,
0,
0,
0,
0,
0,
0,
0,
0,
0,
0,
0,
0,
0,
0,
0,
0,
0,
0,
0,
0,
0,
0,
0,
0,
0,
0,
0,
0,
0,
0,
0,
0,
0,
0,
0,
0,
0,
0,
0,
0,
0,
0,
0,
0,
0,
0,
0,
0,
0,
0,
0,
0,
0,
0,
0,
0,
0,
0,
0,
0,
0,
0,
0,
0,
0,
0,
0,
0,
0,
0,
0,
0,
0,
0,
0,
0,
0,
0,
0,
0,
0,
0,
0,
0,
0,
0,
0,
0,
0,
0,
0,
0,
0,
0,
0,
0,
#ENDOFDATA   :