File: N132962/Quantification/15 keV/Mengason MM2/MMM2 Rhodonite[4][4].msa
#FORMAT      : EMSA/MAS Spectral Data File
#VERSION     : 1.0
#TITLE       : MMM2 Rhodonite[4][all]
#DATE        : 28-SEP-2025
#TIME        : 23:26
#OWNER       : Unknown
#NPOINTS     : 4096
#NCOLUMNS    : 1
#XUNITS      : eV
#YUNITS      : counts
#DATATYPE    : Y
#XPERCHAN    : 9.99778
#OFFSET      : 1.69135
#BEAMKV      : 15
#SIGNALTYPE  : EDS
#ELEVANGLE   : 35
#AZIMANGLE   : 0
#LIVETIME    : 240.2351
#REALTIME    : 256.111
#PROBECUR    : 1.21079
#TAUWIND     : 0
#TDEADLYR    : 0
#TACTLYR     : 0.045
#TALWIND     : 0.025
#CHOFFSET    : 0.0
#XLABEL      : Energy (eV)
#YLABEL      : Counts
#XPOSITION   : -16.61824
#YPOSITION   : 1.82482
#ZPOSITION   : 34.11879
#EDSDET      : SD
##SPECIMEN   : MMM2 Rhodonite[4][all]
##DET_HASH   : 12273538-fd48-a23f-0a19-f1e6fa85caef
##CALIB_HASH : 6abaa72c-aa41-8738-0be9-f592914732f3
##WORKING    : 15.0 mm
##DET_NAME   : EDAX All
##DET_MODE   : MediumLE
#SPECTRUM    :
18,
283,
14809,
10696,
86194,
8743,
3308,
3971,
4430,
12300,
5116,
5479,
52328,
25571,
3578,
3267,
3993,
3266,
3097,
3008,
2945,
2764,
2631,
2647,
2444,
2642,
8219,
4070,
2192,
2939,
1947,
1806,
1704,
1691,
1646,
1495,
1490,
1349,
1393,
1370,
1275,
2307,
40055,
4434,
1103,
2028,
7709,
2339,
914,
859,
1200,
932,
762,
701,
731,
730,
607,
644,
560,
592,
572,
543,
503,
493,
467,
435,
427,
431,
371,
369,
370,
343,
338,
322,
316,
253,
287,
238,
238,
221,
192,
195,
198,
175,
161,
141,
135,
131,
126,
108,
89,
92,
91,
85,
67,
69,
46,
62,
43,
33,
37,
24,
28,
17,
15,
6,
5,
3,
1,
0,
0,
1,
0,
0,
1,
3,
0,
0,
1,
0,
0,
1,
1,
0,
0,
0,
0,
2,
0,
0,
0,
0,
0,
0,
0,
0,
0,
0,
0,
0,
0,
1,
0,
0,
0,
0,
0,
0,
0,
0,
0,
0,
0,
0,
0,
0,
0,
0,
0,
0,
0,
0,
0,
0,
0,
0,
0,
0,
0,
0,
0,
0,
0,
0,
0,
0,
0,
0,
0,
0,
1,
0,
0,
0,
0,
0,
0,
0,
0,
0,
0,
0,
0,
0,
0,
0,
0,
0,
0,
0,
0,
0,
0,
0,
0,
0,
0,
0,
0,
0,
0,
0,
0,
0,
0,
0,
0,
0,
0,
0,
0,
0,
0,
0,
0,
0,
0,
0,
0,
0,
0,
0,
0,
0,
0,
0,
0,
0,
0,
0,
0,
0,
0,
0,
0,
0,
0,
0,
0,
0,
0,
0,
0,
0,
0,
0,
0,
0,
0,
0,
0,
0,
0,
0,
0,
0,
0,
0,
0,
0,
0,
0,
0,
0,
0,
0,
0,
0,
0,
0,
0,
0,
0,
0,
0,
0,
0,
0,
0,
0,
0,
0,
0,
0,
#ENDOFDATA   :