File: N132962/Quantification/15 keV/Mengason MM2/MMM2 Manganotantalite[3][4].msa
#FORMAT      : EMSA/MAS Spectral Data File
#VERSION     : 1.0
#TITLE       : MMM2 Manganotantalite[3][all]
#DATE        : 28-SEP-2025
#TIME        : 22:54
#OWNER       : Unknown
#NPOINTS     : 4096
#NCOLUMNS    : 1
#XUNITS      : eV
#YUNITS      : counts
#DATATYPE    : Y
#XPERCHAN    : 9.99778
#OFFSET      : 1.69135
#BEAMKV      : 15
#SIGNALTYPE  : EDS
#ELEVANGLE   : 35
#AZIMANGLE   : 0
#LIVETIME    : 240.357
#REALTIME    : 259.879
#PROBECUR    : 1.2132
#TAUWIND     : 0
#TDEADLYR    : 0
#TACTLYR     : 0.045
#TALWIND     : 0.025
#CHOFFSET    : 0.0
#XLABEL      : Energy (eV)
#YLABEL      : Counts
#XPOSITION   : -22.44803
#YPOSITION   : -0.39288
#ZPOSITION   : 34.11879
#EDSDET      : SD
##SPECIMEN   : MMM2 Manganotantalite[3][all]
##DET_HASH   : 12273538-fd48-a23f-0a19-f1e6fa85caef
##CALIB_HASH : 6abaa72c-aa41-8738-0be9-f592914732f3
##WORKING    : 15.0 mm
##DET_NAME   : EDAX All
##DET_MODE   : MediumLE
#SPECTRUM    :
21,
1088,
19299,
8573,
35563,
10547,
7321,
7989,
8877,
11484,
11970,
10427,
125564,
29070,
10860,
15147,
23741,
7360,
5215,
5343,
4836,
4757,
4769,
4614,
4710,
4788,
4450,
4318,
4254,
4184,
4042,
4100,
4468,
3704,
3639,
3620,
3482,
3375,
3307,
3201,
2997,
3408,
17512,
3945,
2704,
3221,
5968,
3034,
2332,
2332,
2538,
2751,
2089,
2044,
1974,
1851,
1825,
2491,
10571,
3371,
1673,
1507,
1426,
1474,
1320,
1432,
2509,
3568,
1825,
2819,
1259,
1088,
1029,
928,
900,
849,
862,
958,
1166,
828,
756,
678,
647,
634,
549,
517,
454,
493,
445,
393,
373,
357,
344,
302,
264,
244,
226,
234,
197,
160,
129,
105,
85,
94,
58,
36,
28,
8,
2,
9,
6,
3,
4,
2,
1,
3,
3,
0,
2,
1,
1,
1,
2,
2,
2,
1,
4,
4,
0,
2,
1,
2,
1,
1,
2,
3,
0,
1,
1,
0,
0,
0,
0,
1,
1,
2,
0,
0,
0,
0,
0,
1,
1,
0,
0,
0,
0,
1,
0,
0,
0,
0,
0,
0,
0,
0,
0,
0,
0,
0,
0,
0,
0,
0,
0,
0,
0,
0,
0,
1,
0,
0,
0,
0,
0,
0,
0,
0,
0,
0,
0,
0,
0,
0,
0,
0,
0,
0,
0,
0,
0,
0,
0,
0,
0,
0,
0,
0,
0,
0,
0,
0,
0,
0,
0,
0,
0,
0,
0,
0,
0,
0,
0,
0,
0,
0,
0,
0,
0,
0,
0,
0,
0,
0,
0,
0,
0,
0,
0,
0,
0,
0,
0,
0,
0,
0,
0,
0,
0,
0,
0,
0,
0,
0,
0,
0,
0,
0,
0,
0,
0,
0,
0,
0,
0,
0,
0,
0,
0,
0,
0,
0,
0,
0,
0,
0,
0,
0,
0,
0,
0,
0,
0,
0,
0,
0,
0,
0,
0,
0,
0,
0,
0,
0,
#ENDOFDATA   :