File: N132962/Quantification/15 keV/Mengason MM2/MMM2 Pollucite[1][4].msa
#FORMAT      : EMSA/MAS Spectral Data File
#VERSION     : 1.0
#TITLE       : MMM2 Pollucite[1][all]
#DATE        : 29-SEP-2025
#TIME        : 00:35
#OWNER       : Unknown
#NPOINTS     : 4096
#NCOLUMNS    : 1
#XUNITS      : eV
#YUNITS      : counts
#DATATYPE    : Y
#XPERCHAN    : 9.99778
#OFFSET      : 1.69135
#BEAMKV      : 15
#SIGNALTYPE  : EDS
#ELEVANGLE   : 35
#AZIMANGLE   : 0
#LIVETIME    : 240.313
#REALTIME    : 257.57
#PROBECUR    : 1.21186
#TAUWIND     : 0
#TDEADLYR    : 0
#TACTLYR     : 0.045
#TALWIND     : 0.025
#CHOFFSET    : 0.0
#XLABEL      : Energy (eV)
#YLABEL      : Counts
#XPOSITION   : -20.60003
#YPOSITION   : 3.82909
#ZPOSITION   : 34.11879
#EDSDET      : SD
##SPECIMEN   : MMM2 Pollucite[1][all]
##DET_HASH   : 12273538-fd48-a23f-0a19-f1e6fa85caef
##CALIB_HASH : 6abaa72c-aa41-8738-0be9-f592914732f3
##WORKING    : 15.0 mm
##DET_NAME   : EDAX All
##DET_MODE   : MediumLE
#SPECTRUM    :
19,
343,
15341,
11548,
86150,
6795,
4673,
7747,
5227,
5495,
9335,
25539,
47001,
23120,
4148,
3997,
4239,
3776,
3935,
3588,
3460,
3374,
3154,
3330,
3036,
3028,
2787,
3811,
2629,
2753,
9615,
19777,
2741,
16489,
4742,
5937,
2696,
2216,
3175,
1909,
1986,
1649,
1454,
1441,
1370,
1323,
1353,
1210,
1237,
1142,
1086,
1067,
1003,
1064,
964,
973,
864,
862,
802,
832,
774,
756,
722,
690,
672,
600,
574,
612,
567,
534,
485,
515,
483,
429,
438,
417,
390,
366,
356,
358,
289,
299,
256,
275,
230,
230,
211,
235,
175,
165,
177,
168,
149,
133,
111,
103,
91,
88,
69,
72,
60,
40,
40,
26,
21,
18,
10,
1,
1,
1,
0,
2,
0,
0,
0,
1,
1,
1,
0,
0,
0,
1,
0,
1,
0,
1,
0,
1,
0,
0,
0,
0,
0,
0,
0,
0,
0,
0,
0,
0,
0,
0,
0,
0,
0,
0,
0,
0,
0,
0,
0,
0,
0,
0,
0,
0,
1,
0,
0,
0,
0,
0,
0,
0,
0,
0,
0,
0,
0,
0,
0,
0,
0,
0,
0,
0,
0,
0,
0,
0,
0,
0,
0,
0,
0,
0,
0,
0,
0,
0,
0,
0,
0,
0,
0,
0,
0,
0,
0,
0,
0,
0,
0,
0,
0,
0,
0,
0,
0,
0,
0,
0,
0,
0,
0,
0,
0,
0,
0,
0,
0,
0,
0,
0,
0,
0,
0,
0,
0,
0,
0,
0,
0,
0,
0,
0,
0,
0,
0,
0,
0,
0,
0,
0,
0,
0,
0,
0,
0,
0,
0,
0,
0,
0,
0,
0,
0,
0,
0,
0,
0,
0,
0,
0,
0,
0,
0,
0,
0,
0,
0,
0,
0,
0,
0,
0,
0,
0,
0,
0,
0,
0,
0,
0,
0,
0,
0,
0,
0,
0,
0,
0,
0,
0,
#ENDOFDATA   :