File: N132962/Quantification/20 keV/MMM1/SPI MM1 Anhydrite[1][4].msa
#FORMAT      : EMSA/MAS Spectral Data File
#VERSION     : 1.0
#TITLE       : SPI MM1 Anhydrite[1][all]
#DATE        : 11-MAR-2025
#TIME        : 13:45
#OWNER       : Unknown
#NPOINTS     : 4096
#NCOLUMNS    : 1
#XUNITS      : eV
#YUNITS      : counts
#DATATYPE    : Y
#XPERCHAN    : 9.99778
#OFFSET      : 1.69135
#BEAMKV      : 20
#SIGNALTYPE  : EDS
#ELEVANGLE   : 35
#AZIMANGLE   : 0
#LIVETIME    : 239.855
#REALTIME    : 255.018
#PROBECUR    : 1.02853
#TAUWIND     : 0
#TDEADLYR    : 0
#TACTLYR     : 0.045
#TALWIND     : 0.025
#CHOFFSET    : 0.0
#XLABEL      : Energy (eV)
#YLABEL      : Counts
#XPOSITION   : 4.98272
#YPOSITION   : -5.00329
#ZPOSITION   : 30.9284
#EDSDET      : SD
##SPECIMEN   : SPI MM1 Anhydrite[1][all]
##D2STDCMP   : Anhydrite,(O:47.0085),(S:23.5529),(Ca:29.4387),5.0
##DET_HASH   : 12273538-fd48-a23f-0a19-f1e6fa85caef
##CALIB_HASH : 6abaa72c-aa41-8738-0be9-f592914732f3
##WORKING    : 15.0 mm
##DET_NAME   : EDAX All
##DET_MODE   : MediumLE
#SPECTRUM    :
23,
675,
11920,
3225,
30564,
2356,
2700,
2991,
3544,
4093,
4412,
4705,
4843,
7200,
5891,
4612,
49381,
42193,
7125,
2743,
2952,
2679,
2643,
2511,
2432,
2987,
71737,
24454,
5032,
12364,
1797,
1616,
1593,
1729,
1583,
1533,
1485,
1473,
1344,
1330,
1268,
1206,
1219,
1368,
1133,
1133,
1165,
1085,
990,
899,
951,
943,
913,
1035,
890,
848,
782,
703,
688,
748,
702,
660,
647,
602,
601,
588,
575,
572,
513,
541,
487,
517,
501,
452,
439,
399,
382,
385,
375,
354,
385,
336,
315,
301,
310,
278,
234,
264,
257,
233,
214,
218,
181,
211,
174,
200,
192,
172,
152,
134,
160,
155,
144,
130,
121,
99,
95,
102,
84,
93,
73,
72,
62,
59,
58,
50,
67,
53,
51,
49,
35,
37,
46,
44,
31,
37,
25,
25,
26,
20,
19,
14,
9,
8,
14,
10,
7,
9,
7,
5,
0,
1,
0,
0,
1,
1,
0,
0,
0,
1,
0,
0,
0,
0,
0,
0,
0,
0,
0,
0,
0,
0,
0,
0,
0,
0,
0,
0,
0,
0,
0,
0,
0,
0,
0,
0,
0,
0,
0,
0,
0,
0,
0,
0,
0,
0,
0,
0,
0,
0,
0,
0,
0,
1,
0,
0,
0,
0,
0,
0,
0,
0,
0,
0,
0,
0,
0,
0,
0,
0,
0,
0,
0,
0,
0,
0,
0,
0,
0,
0,
0,
0,
0,
0,
0,
0,
0,
0,
0,
0,
0,
0,
0,
0,
0,
0,
0,
0,
0,
0,
0,
0,
0,
0,
0,
0,
0,
0,
0,
0,
0,
0,
0,
0,
0,
0,
0,
0,
0,
0,
0,
0,
0,
0,
0,
0,
0,
0,
0,
0,
0,
0,
0,
0,
0,
0,
0,
0,
0,
0,
0,
0,
0,
0,
0,
0,
0,
0,
0,
0,
0,
0,
0,
0,
#ENDOFDATA   :