File: N132962/Quantification/20 keV/MMM1/SPI MM1 Barite[1][4].msa
#FORMAT      : EMSA/MAS Spectral Data File
#VERSION     : 1.0
#TITLE       : SPI MM1 Barite[1][all]
#DATE        : 11-MAR-2025
#TIME        : 13:26
#OWNER       : Unknown
#NPOINTS     : 4096
#NCOLUMNS    : 1
#XUNITS      : eV
#YUNITS      : counts
#DATATYPE    : Y
#XPERCHAN    : 9.99778
#OFFSET      : 1.69135
#BEAMKV      : 20
#SIGNALTYPE  : EDS
#ELEVANGLE   : 35
#AZIMANGLE   : 0
#LIVETIME    : 239.878
#REALTIME    : 258.922
#PROBECUR    : 1.02853
#TAUWIND     : 0
#TDEADLYR    : 0
#TACTLYR     : 0.045
#TALWIND     : 0.025
#CHOFFSET    : 0.0
#XLABEL      : Energy (eV)
#YLABEL      : Counts
#XPOSITION   : -0.46765
#YPOSITION   : -5.02625
#ZPOSITION   : 30.9284
#EDSDET      : SD
##SPECIMEN   : SPI MM1 Barite[1][all]
##DET_HASH   : 12273538-fd48-a23f-0a19-f1e6fa85caef
##CALIB_HASH : 6abaa72c-aa41-8738-0be9-f592914732f3
##WORKING    : 15.0 mm
##DET_NAME   : EDAX All
##DET_MODE   : MediumLE
#SPECTRUM    :
16,
1033,
13969,
8258,
55513,
5985,
5303,
5886,
4340,
4411,
4844,
5302,
5685,
6374,
5553,
5750,
28253,
24256,
7007,
5181,
5041,
4859,
5127,
4691,
4690,
4442,
4333,
4317,
6384,
4673,
4238,
9325,
82998,
4905,
18889,
26086,
6082,
16043,
3339,
5054,
5130,
3892,
3415,
2638,
2261,
2388,
2545,
2217,
2194,
2128,
2113,
2051,
1941,
2087,
1992,
1872,
1847,
1744,
1661,
1704,
1557,
1645,
1542,
1542,
1504,
1428,
1412,
1353,
1370,
1280,
1299,
1221,
1163,
1135,
1098,
1129,
1090,
979,
965,
958,
910,
877,
888,
819,
821,
762,
765,
745,
664,
723,
658,
609,
614,
519,
521,
574,
489,
476,
419,
466,
423,
390,
364,
363,
325,
322,
315,
287,
277,
246,
243,
269,
226,
224,
172,
155,
200,
184,
156,
149,
131,
129,
92,
102,
127,
102,
79,
87,
79,
84,
63,
43,
56,
43,
38,
33,
28,
25,
23,
15,
16,
11,
1,
1,
0,
0,
2,
2,
1,
3,
0,
2,
3,
1,
0,
0,
1,
1,
0,
0,
0,
0,
0,
1,
0,
0,
0,
0,
0,
1,
0,
0,
1,
1,
1,
1,
0,
0,
0,
0,
1,
0,
0,
0,
0,
0,
1,
0,
0,
0,
0,
0,
0,
0,
0,
0,
0,
0,
0,
0,
0,
0,
0,
0,
1,
0,
0,
0,
0,
0,
0,
0,
0,
0,
0,
0,
0,
0,
0,
0,
0,
0,
0,
0,
0,
0,
0,
0,
0,
0,
0,
0,
0,
0,
0,
0,
0,
0,
0,
0,
0,
0,
0,
0,
0,
0,
0,
0,
0,
0,
0,
0,
0,
0,
0,
0,
0,
0,
0,
0,
0,
0,
0,
0,
0,
0,
0,
0,
0,
0,
0,
0,
0,
0,
0,
0,
0,
0,
0,
0,
0,
0,
0,
0,
0,
0,
0,
0,
0,
0,
0,
0,
0,
0,
#ENDOFDATA   :