File: N132962/Quantification/20 keV/MMM1/SPI MM1 Almandine[3][4].msa
#FORMAT      : EMSA/MAS Spectral Data File
#VERSION     : 1.0
#TITLE       : SPI MM1 Almandine[3][all]
#DATE        : 11-MAR-2025
#TIME        : 13:01
#OWNER       : Unknown
#NPOINTS     : 4096
#NCOLUMNS    : 1
#XUNITS      : eV
#YUNITS      : counts
#DATATYPE    : Y
#XPERCHAN    : 9.99778
#OFFSET      : 1.69135
#BEAMKV      : 20
#SIGNALTYPE  : EDS
#ELEVANGLE   : 35
#AZIMANGLE   : 0
#LIVETIME    : 239.851
#REALTIME    : 255.277
#PROBECUR    : 1.02699
#TAUWIND     : 0
#TDEADLYR    : 0
#TACTLYR     : 0.045
#TALWIND     : 0.025
#CHOFFSET    : 0.0
#XLABEL      : Energy (eV)
#YLABEL      : Counts
#XPOSITION   : 0.43894
#YPOSITION   : -7.89301
#ZPOSITION   : 30.9284
#EDSDET      : SD
##SPECIMEN   : SPI MM1 Almandine[3][all]
##D2STDCMP   : Almandine,(O:38.5719),(Al:10.8416),(Si:16.9275),(Fe:33.6591),4.05
##DET_HASH   : 12273538-fd48-a23f-0a19-f1e6fa85caef
##CALIB_HASH : 6abaa72c-aa41-8738-0be9-f592914732f3
##WORKING    : 15.0 mm
##DET_NAME   : EDAX All
##DET_MODE   : MediumLE
#SPECTRUM    :
24,
177,
8861,
6413,
59679,
15183,
2464,
2927,
3782,
42256,
8983,
31373,
39153,
19242,
3026,
2674,
3024,
2762,
2689,
2612,
2740,
2646,
2462,
2625,
2295,
2455,
9263,
4342,
2389,
3071,
1990,
1902,
1824,
1864,
1700,
1631,
1587,
1651,
1472,
1442,
1382,
1345,
2282,
1298,
1330,
9488,
27391,
1410,
1088,
1209,
4190,
2435,
851,
868,
809,
819,
807,
784,
745,
695,
699,
619,
676,
644,
571,
630,
593,
550,
547,
533,
515,
500,
437,
449,
409,
440,
363,
392,
401,
386,
335,
309,
314,
297,
269,
317,
260,
279,
257,
261,
252,
245,
202,
198,
172,
181,
176,
172,
149,
154,
142,
148,
114,
129,
125,
95,
113,
102,
108,
79,
74,
77,
70,
57,
79,
66,
52,
40,
52,
34,
33,
32,
32,
31,
29,
27,
21,
23,
16,
20,
13,
14,
18,
12,
15,
9,
5,
3,
3,
3,
6,
1,
1,
0,
0,
0,
0,
0,
0,
1,
0,
0,
0,
1,
0,
0,
0,
0,
0,
0,
0,
0,
0,
0,
1,
0,
1,
0,
1,
0,
0,
0,
0,
0,
0,
0,
0,
0,
0,
0,
0,
0,
0,
0,
0,
0,
0,
0,
0,
0,
0,
0,
0,
0,
0,
0,
0,
0,
0,
0,
0,
0,
0,
0,
0,
0,
0,
0,
0,
0,
0,
0,
0,
0,
0,
0,
0,
0,
0,
0,
0,
0,
0,
0,
0,
0,
0,
0,
0,
0,
0,
0,
0,
0,
0,
0,
0,
0,
0,
0,
0,
0,
0,
0,
0,
0,
0,
0,
0,
0,
0,
0,
0,
0,
0,
0,
0,
0,
0,
0,
0,
0,
0,
0,
0,
0,
0,
0,
0,
0,
0,
0,
0,
0,
0,
0,
0,
0,
0,
0,
0,
0,
0,
0,
0,
0,
0,
0,
0,
0,
0,
0,
0,
0,
#ENDOFDATA   :