File: N132962/Quantification/20 keV/MMM1/SPI MM1 Arsenopyrite[7][4].msa
#FORMAT      : EMSA/MAS Spectral Data File
#VERSION     : 1.0
#TITLE       : SPI MM1 Arsenopyrite[7][all]
#DATE        : 11-MAR-2025
#TIME        : 13:43
#OWNER       : Unknown
#NPOINTS     : 4096
#NCOLUMNS    : 1
#XUNITS      : eV
#YUNITS      : counts
#DATATYPE    : Y
#XPERCHAN    : 9.99778
#OFFSET      : 1.69135
#BEAMKV      : 20
#SIGNALTYPE  : EDS
#ELEVANGLE   : 35
#AZIMANGLE   : 0
#LIVETIME    : 239.8199
#REALTIME    : 260.782
#PROBECUR    : 1.02853
#TAUWIND     : 0
#TDEADLYR    : 0
#TACTLYR     : 0.045
#TALWIND     : 0.025
#CHOFFSET    : 0.0
#XLABEL      : Energy (eV)
#YLABEL      : Counts
#XPOSITION   : 2.19274
#YPOSITION   : -5.00754
#ZPOSITION   : 30.9284
#EDSDET      : SD
##SPECIMEN   : SPI MM1 Arsenopyrite[7][all]
##D2STDCMP   : Arsenopyrite,(S:19.6897),(Fe:34.2972),(As:46.0131),6.0
##DET_HASH   : 12273538-fd48-a23f-0a19-f1e6fa85caef
##CALIB_HASH : 6abaa72c-aa41-8738-0be9-f592914732f3
##WORKING    : 15.0 mm
##DET_NAME   : EDAX All
##DET_MODE   : MediumLE
#SPECTRUM    :
25,
367,
11662,
3189,
11223,
57780,
5084,
5462,
14504,
146615,
10297,
4358,
4509,
4848,
4868,
4988,
33153,
26774,
7719,
4365,
4195,
4165,
4197,
4003,
4193,
4082,
4231,
3910,
3795,
3778,
3696,
3533,
3514,
3555,
3338,
3197,
3086,
3077,
2949,
2878,
2826,
2782,
2681,
2725,
2753,
19897,
57357,
2892,
2226,
2330,
8523,
5438,
1816,
1881,
1780,
1793,
1643,
1595,
1580,
1553,
1489,
1458,
1450,
1454,
1311,
1304,
1297,
1182,
1192,
1138,
1125,
1083,
1031,
1016,
2591,
17500,
5885,
962,
893,
857,
876,
869,
824,
1839,
2729,
871,
585,
597,
567,
543,
545,
569,
528,
476,
459,
432,
401,
396,
368,
374,
332,
334,
325,
290,
297,
278,
277,
219,
251,
250,
209,
173,
188,
178,
166,
125,
164,
140,
136,
129,
127,
127,
130,
86,
77,
81,
81,
76,
59,
52,
50,
41,
40,
37,
27,
32,
15,
18,
16,
16,
11,
5,
10,
8,
2,
0,
1,
3,
1,
0,
3,
1,
0,
2,
0,
0,
0,
2,
2,
2,
0,
1,
0,
1,
1,
0,
1,
0,
2,
3,
0,
0,
2,
0,
0,
0,
1,
0,
1,
0,
0,
0,
1,
0,
0,
1,
0,
0,
3,
0,
0,
0,
0,
0,
0,
1,
0,
0,
0,
0,
0,
0,
0,
0,
0,
0,
0,
0,
0,
0,
0,
0,
0,
0,
0,
0,
0,
0,
0,
0,
0,
0,
0,
0,
0,
0,
0,
0,
0,
0,
0,
0,
0,
0,
0,
0,
0,
0,
0,
0,
0,
0,
0,
0,
0,
0,
0,
0,
0,
0,
0,
0,
0,
0,
0,
0,
0,
0,
0,
0,
0,
0,
0,
0,
0,
0,
0,
0,
0,
0,
0,
0,
0,
0,
0,
0,
0,
0,
0,
0,
0,
0,
0,
0,
0,
0,
0,
0,
0,
0,
0,
0,
0,
0,
#ENDOFDATA   :