File: N132962/Quantification/20 keV/MMM1/SPI MM1 Benitoite[7][4].msa
#FORMAT      : EMSA/MAS Spectral Data File
#VERSION     : 1.0
#TITLE       : SPI MM1 Benitoite[7][all]
#DATE        : 11-MAR-2025
#TIME        : 13:24
#OWNER       : Unknown
#NPOINTS     : 4096
#NCOLUMNS    : 1
#XUNITS      : eV
#YUNITS      : counts
#DATATYPE    : Y
#XPERCHAN    : 9.99778
#OFFSET      : 1.69135
#BEAMKV      : 20
#SIGNALTYPE  : EDS
#ELEVANGLE   : 35
#AZIMANGLE   : 0
#LIVETIME    : 239.8495
#REALTIME    : 256.741
#PROBECUR    : 1.02853
#TAUWIND     : 0
#TDEADLYR    : 0
#TACTLYR     : 0.045
#TALWIND     : 0.025
#CHOFFSET    : 0.0
#XLABEL      : Energy (eV)
#YLABEL      : Counts
#XPOSITION   : -3.26161
#YPOSITION   : -4.84117
#ZPOSITION   : 30.9284
#EDSDET      : SD
##SPECIMEN   : SPI MM1 Benitoite[7][all]
##D2STDCMP   : Benitoite,(O:34.828),(Si:20.3791),(Ti:11.5776),(Ba:33.2153)
##DET_HASH   : 12273538-fd48-a23f-0a19-f1e6fa85caef
##CALIB_HASH : 6abaa72c-aa41-8738-0be9-f592914732f3
##WORKING    : 15.0 mm
##DET_NAME   : EDAX All
##DET_MODE   : MediumLE
#SPECTRUM    :
30,
293,
11494,
12031,
44416,
3682,
4064,
4709,
3946,
4103,
4661,
5395,
46315,
23292,
3905,
3893,
4408,
4100,
4063,
4193,
4262,
3833,
4025,
3731,
3713,
3700,
3443,
3471,
4591,
3532,
3260,
6416,
80041,
7201,
11475,
19137,
4643,
8899,
2430,
3383,
3480,
2767,
2380,
1884,
1782,
1912,
1951,
1700,
1596,
1564,
1566,
1531,
1446,
1488,
1419,
1377,
1249,
1199,
1271,
1237,
1180,
1171,
1129,
1141,
1132,
1094,
947,
937,
979,
971,
928,
904,
829,
791,
791,
778,
748,
746,
719,
694,
626,
598,
576,
580,
550,
536,
488,
529,
488,
422,
437,
426,
415,
420,
413,
371,
341,
324,
317,
313,
294,
263,
259,
223,
262,
211,
200,
194,
205,
161,
168,
162,
140,
135,
139,
119,
114,
118,
100,
86,
78,
78,
81,
68,
75,
51,
68,
57,
48,
54,
48,
30,
32,
17,
21,
23,
12,
24,
18,
9,
13,
7,
1,
0,
2,
0,
0,
2,
0,
1,
1,
0,
3,
0,
0,
3,
2,
1,
0,
1,
0,
0,
0,
0,
0,
0,
1,
0,
1,
0,
0,
0,
0,
1,
1,
0,
0,
0,
0,
0,
0,
0,
0,
0,
0,
0,
0,
0,
0,
0,
0,
0,
0,
0,
0,
0,
0,
0,
0,
0,
0,
1,
0,
0,
0,
0,
0,
0,
0,
0,
0,
0,
0,
0,
0,
0,
0,
0,
0,
0,
0,
0,
0,
0,
0,
0,
0,
0,
0,
0,
0,
0,
0,
0,
0,
0,
0,
0,
0,
0,
0,
0,
0,
1,
0,
0,
0,
0,
0,
0,
0,
0,
0,
0,
0,
0,
0,
0,
0,
0,
0,
0,
0,
0,
0,
0,
0,
0,
0,
0,
0,
0,
0,
0,
0,
0,
0,
0,
0,
0,
0,
0,
0,
0,
0,
0,
0,
0,
0,
0,
0,
0,
0,
0,
#ENDOFDATA   :