File: N132962/Quantification/20 keV/MMM1/SPI MM1 Bustamite[3][4].msa
#FORMAT      : EMSA/MAS Spectral Data File
#VERSION     : 1.0
#TITLE       : SPI MM1 Bustamite[3][all]
#DATE        : 11-MAR-2025
#TIME        : 14:06
#OWNER       : Unknown
#NPOINTS     : 4096
#NCOLUMNS    : 1
#XUNITS      : eV
#YUNITS      : counts
#DATATYPE    : Y
#XPERCHAN    : 9.99778
#OFFSET      : 1.69135
#BEAMKV      : 20
#SIGNALTYPE  : EDS
#ELEVANGLE   : 35
#AZIMANGLE   : 0
#LIVETIME    : 239.8339
#REALTIME    : 255.663
#PROBECUR    : 1.02902
#TAUWIND     : 0
#TDEADLYR    : 0
#TACTLYR     : 0.045
#TALWIND     : 0.025
#CHOFFSET    : 0.0
#XLABEL      : Energy (eV)
#YLABEL      : Counts
#XPOSITION   : 2.64822
#YPOSITION   : -2.68444
#ZPOSITION   : 30.9284
#EDSDET      : SD
##SPECIMEN   : SPI MM1 Bustamite[3][all]
##D2STDCMP   : Bustamite,(O:38.8357),(Si:22.7243),(Ca:16.2141),(Mn:22.2259),6.0
##DET_HASH   : 12273538-fd48-a23f-0a19-f1e6fa85caef
##CALIB_HASH : 6abaa72c-aa41-8738-0be9-f592914732f3
##WORKING    : 15.0 mm
##DET_NAME   : EDAX All
##DET_MODE   : MediumLE
#SPECTRUM    :
21,
199,
11225,
4838,
41405,
6991,
2325,
3062,
3282,
4622,
4469,
5213,
55962,
27121,
3907,
3205,
3532,
3219,
3149,
3068,
3080,
2922,
2855,
2875,
2729,
3101,
36783,
13568,
3846,
7444,
2307,
1932,
1995,
1851,
1856,
1749,
1739,
1664,
1676,
1743,
1625,
2622,
40188,
4644,
1365,
4125,
13968,
2657,
1137,
1110,
2002,
1478,
989,
987,
983,
955,
840,
791,
846,
820,
746,
865,
830,
755,
672,
658,
612,
592,
666,
604,
577,
554,
547,
488,
514,
469,
466,
389,
398,
416,
391,
362,
335,
367,
333,
330,
306,
278,
288,
268,
253,
238,
235,
233,
215,
193,
217,
173,
168,
194,
175,
173,
135,
150,
116,
129,
134,
111,
89,
98,
95,
85,
91,
80,
62,
62,
71,
39,
66,
58,
55,
43,
40,
43,
38,
32,
29,
30,
31,
19,
23,
19,
21,
11,
16,
13,
7,
6,
4,
5,
2,
1,
2,
0,
0,
1,
0,
0,
0,
1,
0,
1,
0,
0,
0,
0,
0,
0,
0,
0,
0,
0,
0,
0,
0,
0,
0,
0,
0,
0,
0,
0,
0,
0,
0,
0,
1,
0,
0,
0,
0,
0,
0,
0,
0,
0,
0,
0,
0,
0,
0,
0,
0,
0,
0,
0,
0,
0,
0,
0,
0,
0,
0,
0,
0,
0,
0,
0,
0,
0,
1,
0,
0,
0,
0,
0,
0,
0,
0,
0,
0,
0,
0,
0,
0,
0,
0,
0,
0,
0,
0,
0,
0,
0,
0,
0,
0,
0,
0,
0,
0,
0,
0,
0,
0,
0,
0,
0,
0,
0,
0,
0,
0,
0,
0,
0,
0,
0,
0,
0,
0,
0,
0,
0,
0,
0,
0,
0,
0,
0,
0,
0,
0,
0,
0,
0,
0,
0,
0,
0,
0,
0,
0,
0,
0,
0,
0,
0,
0,
0,
0,
0,
0,
0,
#ENDOFDATA   :