File: N132962/Quantification/20 keV/MMM1/SPI MM1 Chalcopyrite[3][4].msa
#FORMAT      : EMSA/MAS Spectral Data File
#VERSION     : 1.0
#TITLE       : SPI MM1 Chalcopyrite[3][all]
#DATE        : 11-MAR-2025
#TIME        : 14:30
#OWNER       : Unknown
#NPOINTS     : 4096
#NCOLUMNS    : 1
#XUNITS      : eV
#YUNITS      : counts
#DATATYPE    : Y
#XPERCHAN    : 9.99778
#OFFSET      : 1.69135
#BEAMKV      : 20
#SIGNALTYPE  : EDS
#ELEVANGLE   : 35
#AZIMANGLE   : 0
#LIVETIME    : 239.785
#REALTIME    : 260.327
#PROBECUR    : 1.02809
#TAUWIND     : 0
#TDEADLYR    : 0
#TACTLYR     : 0.045
#TALWIND     : 0.025
#CHOFFSET    : 0.0
#XLABEL      : Energy (eV)
#YLABEL      : Counts
#XPOSITION   : -4.86775
#YPOSITION   : -3.78377
#ZPOSITION   : 30.9284
#EDSDET      : SD
##SPECIMEN   : SPI MM1 Chalcopyrite[3][all]
##D2STDCMP   : Chalcopyrite,(S:34.9407),(Fe:30.4314),(Cu:34.6279),4.2
##DET_HASH   : 12273538-fd48-a23f-0a19-f1e6fa85caef
##CALIB_HASH : 6abaa72c-aa41-8738-0be9-f592914732f3
##WORKING    : 15.0 mm
##DET_NAME   : EDAX All
##DET_MODE   : MediumLE
#SPECTRUM    :
27,
451,
10705,
3209,
13423,
42627,
11604,
28868,
3415,
3952,
4738,
4990,
5518,
5851,
5449,
5693,
66555,
52245,
10854,
3865,
3785,
3760,
3854,
3841,
3715,
3614,
3517,
3373,
3407,
3242,
3189,
3110,
3021,
3433,
2937,
2832,
2688,
2615,
2592,
2540,
2432,
2272,
2400,
2244,
2442,
17513,
50510,
2483,
2069,
2084,
7521,
4762,
1619,
1631,
1466,
1566,
1829,
25336,
16820,
1484,
1366,
1322,
1437,
3664,
4296,
1113,
1038,
978,
964,
923,
928,
854,
868,
824,
981,
840,
729,
732,
778,
714,
655,
650,
624,
596,
558,
570,
522,
481,
509,
463,
478,
419,
426,
378,
368,
393,
331,
302,
328,
313,
316,
304,
275,
286,
243,
197,
219,
217,
202,
196,
154,
156,
166,
132,
152,
135,
111,
117,
108,
100,
85,
84,
72,
77,
82,
65,
56,
49,
42,
38,
44,
44,
28,
28,
18,
18,
13,
16,
10,
11,
8,
7,
4,
0,
1,
1,
0,
2,
1,
0,
0,
0,
0,
1,
0,
0,
0,
2,
1,
1,
1,
1,
1,
0,
0,
1,
1,
0,
0,
1,
0,
0,
0,
0,
1,
0,
0,
2,
0,
0,
0,
0,
0,
0,
0,
0,
0,
0,
0,
0,
0,
0,
0,
1,
1,
0,
0,
0,
0,
0,
0,
0,
0,
0,
0,
0,
0,
0,
0,
0,
0,
0,
0,
0,
0,
0,
0,
0,
0,
0,
0,
0,
0,
0,
0,
0,
0,
0,
0,
0,
0,
0,
0,
0,
0,
0,
0,
0,
0,
0,
0,
0,
0,
0,
0,
0,
0,
0,
0,
0,
0,
0,
0,
0,
0,
0,
0,
0,
0,
0,
0,
0,
0,
0,
0,
0,
0,
0,
0,
0,
0,
0,
0,
0,
0,
0,
0,
0,
0,
0,
0,
0,
0,
0,
0,
0,
0,
0,
0,
0,
0,
0,
0,
0,
#ENDOFDATA   :