File: N132962/Quantification/20 keV/MMM1/SPI MM1 Andradite[0][4].msa
#FORMAT      : EMSA/MAS Spectral Data File
#VERSION     : 1.0
#TITLE       : SPI MM1 Andradite[0][all]
#DATE        : 11-MAR-2025
#TIME        : 13:07
#OWNER       : Unknown
#NPOINTS     : 4096
#NCOLUMNS    : 1
#XUNITS      : eV
#YUNITS      : counts
#DATATYPE    : Y
#XPERCHAN    : 9.99778
#OFFSET      : 1.69135
#BEAMKV      : 20
#SIGNALTYPE  : EDS
#ELEVANGLE   : 35
#AZIMANGLE   : 0
#LIVETIME    : 239.882
#REALTIME    : 255.403
#PROBECUR    : 1.02699
#TAUWIND     : 0
#TDEADLYR    : 0
#TACTLYR     : 0.045
#TALWIND     : 0.025
#CHOFFSET    : 0.0
#XLABEL      : Energy (eV)
#YLABEL      : Counts
#XPOSITION   : -2.2034
#YPOSITION   : -7.99393
#ZPOSITION   : 30.9284
#EDSDET      : SD
##SPECIMEN   : SPI MM1 Andradite[0][all]
##D2STDCMP   : Andradite,(O:37.7805),(Si:16.5802),(Ca:23.6603),(Fe:21.979),3.86
##DET_HASH   : 12273538-fd48-a23f-0a19-f1e6fa85caef
##CALIB_HASH : 6abaa72c-aa41-8738-0be9-f592914732f3
##WORKING    : 15.0 mm
##DET_NAME   : EDAX All
##DET_MODE   : MediumLE
#SPECTRUM    :
27,
179,
12834,
3989,
31566,
14061,
2465,
2808,
3341,
4045,
5492,
10971,
42261,
21115,
4593,
3359,
3637,
3368,
3291,
3240,
3071,
3135,
3150,
2995,
2795,
3390,
61881,
21519,
4986,
11272,
2123,
1942,
1920,
1957,
1800,
1823,
1690,
1733,
1647,
1590,
1486,
1561,
2023,
1365,
1401,
9250,
26383,
1464,
1236,
1247,
4037,
2564,
991,
1069,
994,
863,
879,
854,
885,
805,
762,
727,
631,
704,
685,
633,
652,
618,
628,
577,
537,
543,
603,
514,
522,
487,
457,
452,
410,
429,
387,
399,
386,
339,
329,
327,
312,
300,
278,
281,
272,
240,
241,
214,
238,
222,
206,
213,
188,
169,
167,
159,
121,
136,
123,
124,
121,
100,
115,
90,
99,
66,
63,
75,
70,
62,
79,
62,
62,
51,
54,
45,
43,
44,
36,
28,
33,
36,
28,
20,
18,
19,
15,
15,
11,
15,
12,
3,
3,
6,
4,
1,
1,
1,
1,
1,
0,
0,
0,
0,
0,
1,
0,
0,
0,
0,
0,
0,
0,
0,
0,
0,
0,
1,
0,
0,
0,
0,
0,
0,
0,
0,
0,
0,
0,
1,
0,
0,
0,
0,
0,
0,
0,
0,
1,
0,
1,
0,
0,
1,
0,
0,
0,
0,
1,
0,
0,
0,
0,
0,
0,
0,
0,
0,
0,
0,
0,
0,
0,
0,
0,
0,
0,
0,
0,
0,
0,
0,
0,
0,
0,
0,
0,
0,
0,
0,
0,
0,
0,
0,
0,
0,
0,
0,
0,
0,
0,
0,
0,
0,
0,
0,
0,
0,
0,
0,
0,
0,
0,
0,
0,
0,
0,
0,
0,
0,
0,
0,
0,
0,
0,
0,
0,
0,
0,
0,
0,
0,
0,
0,
0,
0,
0,
0,
0,
0,
0,
0,
0,
0,
0,
0,
0,
0,
0,
0,
0,
0,
0,
0,
0,
0,
0,
0,
#ENDOFDATA   :