File: N132962/Quantification/20 keV/MMM1/SPI MM1 Arsenopyrite[1][4].msa
#FORMAT      : EMSA/MAS Spectral Data File
#VERSION     : 1.0
#TITLE       : SPI MM1 Arsenopyrite[1][all]
#DATE        : 11-MAR-2025
#TIME        : 13:36
#OWNER       : Unknown
#NPOINTS     : 4096
#NCOLUMNS    : 1
#XUNITS      : eV
#YUNITS      : counts
#DATATYPE    : Y
#XPERCHAN    : 9.99778
#OFFSET      : 1.69135
#BEAMKV      : 20
#SIGNALTYPE  : EDS
#ELEVANGLE   : 35
#AZIMANGLE   : 0
#LIVETIME    : 239.829
#REALTIME    : 260.787
#PROBECUR    : 1.02853
#TAUWIND     : 0
#TDEADLYR    : 0
#TACTLYR     : 0.045
#TALWIND     : 0.025
#CHOFFSET    : 0.0
#XLABEL      : Energy (eV)
#YLABEL      : Counts
#XPOSITION   : 2.17721
#YPOSITION   : -5.01307
#ZPOSITION   : 30.9284
#EDSDET      : SD
##SPECIMEN   : SPI MM1 Arsenopyrite[1][all]
##D2STDCMP   : Arsenopyrite,(S:19.6897),(Fe:34.2972),(As:46.0131),6.0
##DET_HASH   : 12273538-fd48-a23f-0a19-f1e6fa85caef
##CALIB_HASH : 6abaa72c-aa41-8738-0be9-f592914732f3
##WORKING    : 15.0 mm
##DET_NAME   : EDAX All
##DET_MODE   : MediumLE
#SPECTRUM    :
29,
364,
11536,
3287,
11235,
57351,
4988,
5454,
14801,
146367,
10546,
4148,
4538,
4957,
4718,
4973,
33827,
26827,
7572,
4265,
4278,
4283,
4213,
4169,
4020,
3993,
4192,
3993,
3848,
3697,
3701,
3539,
3510,
3619,
3282,
3185,
3082,
3087,
3024,
2929,
2854,
2734,
2637,
2649,
2710,
19864,
57093,
2883,
2326,
2399,
8627,
5323,
1793,
1917,
1823,
1889,
1599,
1605,
1582,
1570,
1439,
1436,
1489,
1449,
1248,
1252,
1221,
1210,
1166,
1180,
1138,
1136,
1074,
1116,
2495,
17767,
5857,
925,
885,
832,
831,
755,
856,
1800,
2664,
905,
647,
574,
533,
556,
532,
552,
549,
482,
438,
444,
379,
419,
348,
365,
334,
339,
308,
325,
284,
275,
238,
258,
241,
236,
205,
189,
178,
167,
193,
154,
155,
145,
155,
119,
119,
119,
115,
84,
82,
84,
73,
62,
72,
57,
48,
48,
42,
35,
36,
30,
21,
20,
12,
18,
11,
6,
2,
4,
0,
3,
0,
3,
1,
1,
2,
6,
1,
1,
1,
1,
2,
2,
0,
3,
1,
1,
0,
0,
1,
2,
1,
0,
0,
2,
1,
2,
0,
0,
1,
0,
0,
2,
0,
1,
1,
1,
2,
0,
0,
1,
0,
0,
0,
1,
0,
0,
0,
0,
0,
0,
0,
0,
0,
0,
1,
0,
0,
0,
0,
0,
0,
0,
0,
1,
0,
0,
0,
0,
0,
0,
0,
0,
0,
0,
0,
0,
0,
0,
0,
0,
0,
0,
0,
0,
0,
0,
0,
0,
0,
0,
0,
0,
0,
0,
0,
0,
0,
0,
0,
0,
0,
0,
0,
0,
0,
0,
0,
0,
0,
0,
0,
0,
0,
0,
0,
0,
0,
0,
0,
0,
0,
0,
0,
0,
0,
0,
0,
0,
0,
0,
0,
0,
0,
0,
0,
0,
0,
0,
0,
0,
0,
0,
0,
0,
0,
0,
0,
0,
#ENDOFDATA   :