File: N132962/Quantification/20 keV/MMM1/SPI MM1 Hematite[2][4].msa
#FORMAT      : EMSA/MAS Spectral Data File
#VERSION     : 1.0
#TITLE       : SPI MM1dup Hematite[2][all]
#DATE        : 12-MAR-2025
#TIME        : 16:48
#OWNER       : Unknown
#NPOINTS     : 4096
#NCOLUMNS    : 1
#XUNITS      : eV
#YUNITS      : counts
#DATATYPE    : Y
#XPERCHAN    : 9.99778
#OFFSET      : 1.69135
#BEAMKV      : 20
#SIGNALTYPE  : EDS
#ELEVANGLE   : 35
#AZIMANGLE   : 0
#LIVETIME    : 239.821
#REALTIME    : 256.682
#PROBECUR    : 1.026781
#TAUWIND     : 0
#TDEADLYR    : 0
#TACTLYR     : 0.045
#TALWIND     : 0.025
#CHOFFSET    : 0.0
#XLABEL      : Energy (eV)
#YLABEL      : Counts
#XPOSITION   : 3.57158
#YPOSITION   : 4.1647
#ZPOSITION   : 31.03608
#EDSDET      : SD
##SPECIMEN   : SPI MM1dup Hematite[2][all]
##D2STDCMP   : Hematite,(O:30.0574),(Fe:69.9426),5.0
##DET_HASH   : 12273538-fd48-a23f-0a19-f1e6fa85caef
##CALIB_HASH : 6abaa72c-aa41-8738-0be9-f592914732f3
##WORKING    : 15.0 mm
##DET_NAME   : EDAX All
##DET_MODE   : MediumLE
#SPECTRUM    :
19,
291,
11260,
9843,
70801,
54844,
2225,
2346,
2815,
3272,
3763,
4148,
4614,
4642,
4368,
4330,
4355,
4142,
4242,
4281,
4126,
4011,
3881,
3696,
3543,
3459,
3279,
3249,
3109,
2959,
2934,
2863,
2772,
3159,
2667,
2555,
2382,
2438,
2290,
2311,
2195,
2018,
2007,
2048,
2341,
34570,
105679,
2922,
1777,
2281,
13893,
7775,
1293,
1249,
1252,
1078,
1165,
1072,
1048,
1047,
1051,
999,
972,
936,
861,
915,
842,
845,
809,
785,
734,
733,
731,
676,
675,
658,
598,
589,
599,
592,
591,
506,
491,
501,
476,
442,
416,
404,
430,
383,
358,
465,
417,
339,
305,
292,
318,
268,
235,
277,
224,
201,
227,
238,
200,
192,
167,
156,
159,
145,
141,
125,
115,
109,
88,
82,
116,
99,
83,
80,
56,
73,
80,
60,
55,
54,
47,
39,
39,
49,
26,
31,
27,
24,
13,
16,
18,
14,
14,
5,
3,
3,
3,
2,
2,
3,
2,
2,
1,
1,
2,
0,
0,
0,
0,
1,
1,
0,
1,
0,
1,
0,
0,
0,
0,
0,
0,
0,
0,
0,
0,
0,
0,
0,
0,
0,
1,
0,
1,
0,
0,
0,
0,
1,
0,
0,
0,
0,
0,
0,
0,
0,
0,
0,
0,
0,
0,
0,
0,
0,
0,
0,
0,
0,
0,
0,
0,
0,
0,
0,
0,
0,
0,
0,
0,
0,
0,
0,
0,
0,
0,
0,
0,
0,
0,
0,
0,
0,
0,
0,
0,
0,
0,
0,
0,
0,
0,
0,
0,
0,
0,
0,
0,
0,
0,
0,
0,
0,
0,
0,
0,
0,
0,
0,
0,
0,
0,
0,
0,
0,
0,
0,
0,
0,
0,
0,
0,
0,
0,
0,
0,
0,
0,
0,
0,
0,
0,
0,
0,
0,
0,
0,
0,
0,
0,
0,
0,
0,
0,
0,
0,
0,
0,
0,
#ENDOFDATA   :