File: N132962/Quantification/20 keV/MMM1/SPI MM1 Jadeite[2][4].msa
#FORMAT      : EMSA/MAS Spectral Data File
#VERSION     : 1.0
#TITLE       : SPI MM1dup Jadeite[2][all]
#DATE        : 12-MAR-2025
#TIME        : 16:31
#OWNER       : Unknown
#NPOINTS     : 4096
#NCOLUMNS    : 1
#XUNITS      : eV
#YUNITS      : counts
#DATATYPE    : Y
#XPERCHAN    : 9.99778
#OFFSET      : 1.69135
#BEAMKV      : 20
#SIGNALTYPE  : EDS
#ELEVANGLE   : 35
#AZIMANGLE   : 0
#LIVETIME    : 239.767
#REALTIME    : 255.531
#PROBECUR    : 1.02709
#TAUWIND     : 0
#TDEADLYR    : 0
#TACTLYR     : 0.045
#TALWIND     : 0.025
#CHOFFSET    : 0.0
#XLABEL      : Energy (eV)
#YLABEL      : Counts
#XPOSITION   : 0.96276
#YPOSITION   : 4.37657
#ZPOSITION   : 31.03608
#EDSDET      : SD
##SPECIMEN   : SPI MM1dup Jadeite[2][all]
##D2STDCMP   : Jadeite,(O:47.4904),(Na:11.3733),(Al:13.348),(Si:27.7883),5.0
##DET_HASH   : 12273538-fd48-a23f-0a19-f1e6fa85caef
##CALIB_HASH : 6abaa72c-aa41-8738-0be9-f592914732f3
##WORKING    : 15.0 mm
##DET_NAME   : EDAX All
##DET_MODE   : MediumLE
#SPECTRUM    :
19,
174,
7507,
6327,
65808,
2023,
2762,
17734,
6329,
4228,
10208,
39354,
60251,
28221,
2191,
2183,
2578,
2067,
2206,
2081,
2247,
2051,
2029,
2073,
1883,
1990,
2055,
1744,
1561,
1630,
1540,
1486,
1450,
1383,
1306,
1289,
1197,
1294,
1166,
1091,
1058,
979,
997,
937,
913,
914,
898,
847,
774,
762,
758,
716,
717,
714,
643,
622,
618,
607,
598,
602,
556,
505,
510,
529,
474,
420,
424,
438,
428,
373,
373,
352,
365,
352,
298,
297,
294,
286,
269,
268,
247,
268,
225,
220,
249,
187,
188,
199,
178,
164,
156,
159,
141,
138,
135,
127,
97,
99,
114,
93,
124,
94,
86,
93,
83,
78,
68,
64,
78,
59,
69,
49,
53,
43,
37,
36,
37,
35,
34,
37,
44,
19,
27,
20,
19,
22,
23,
10,
15,
7,
12,
9,
10,
13,
9,
7,
5,
6,
1,
5,
0,
1,
0,
0,
0,
0,
0,
0,
0,
0,
1,
0,
0,
0,
0,
0,
0,
0,
1,
0,
0,
0,
0,
0,
0,
0,
0,
0,
0,
0,
0,
1,
0,
0,
0,
0,
0,
0,
0,
0,
0,
0,
0,
0,
0,
0,
0,
0,
0,
0,
0,
0,
0,
0,
0,
0,
0,
0,
0,
0,
0,
0,
0,
0,
0,
0,
0,
0,
0,
0,
0,
0,
0,
0,
0,
0,
0,
0,
0,
0,
0,
0,
0,
0,
0,
0,
0,
0,
0,
0,
0,
0,
0,
0,
0,
0,
0,
0,
0,
0,
0,
0,
0,
0,
0,
0,
0,
0,
0,
0,
0,
0,
0,
0,
0,
0,
0,
0,
0,
0,
0,
0,
0,
0,
0,
0,
0,
0,
0,
0,
0,
0,
0,
0,
0,
0,
0,
0,
0,
0,
0,
0,
0,
0,
0,
0,
0,
0,
0,
0,
0,
0,
0,
0,
#ENDOFDATA   :