File: N132962/Quantification/20 keV/MMM1/SPI MM1 Fluorapatite[3][4].msa
#FORMAT      : EMSA/MAS Spectral Data File
#VERSION     : 1.0
#TITLE       : SPI MM1 Fluorapatite[3][all]
#DATE        : 11-MAR-2025
#TIME        : 14:39
#OWNER       : Unknown
#NPOINTS     : 4096
#NCOLUMNS    : 1
#XUNITS      : eV
#YUNITS      : counts
#DATATYPE    : Y
#XPERCHAN    : 9.99778
#OFFSET      : 1.69135
#BEAMKV      : 20
#SIGNALTYPE  : EDS
#ELEVANGLE   : 35
#AZIMANGLE   : 0
#LIVETIME    : 239.891
#REALTIME    : 255.658
#PROBECUR    : 1.02809
#TAUWIND     : 0
#TDEADLYR    : 0
#TACTLYR     : 0.045
#TALWIND     : 0.025
#CHOFFSET    : 0.0
#XLABEL      : Energy (eV)
#YLABEL      : Counts
#XPOSITION   : -2.64905
#YPOSITION   : 1.86629
#ZPOSITION   : 30.9284
#EDSDET      : SD
##SPECIMEN   : SPI MM1 Fluorapatite[3][all]
##D2STDCMP   : Fluorapatite,(O:35.868),(F:3.5492),(P:23.146),(Ca:37.4368)
##DET_HASH   : 12273538-fd48-a23f-0a19-f1e6fa85caef
##CALIB_HASH : 6abaa72c-aa41-8738-0be9-f592914732f3
##WORKING    : 15.0 mm
##DET_NAME   : EDAX All
##DET_MODE   : MediumLE
#SPECTRUM    :
28,
277,
18371,
3152,
21029,
6369,
2799,
3537,
3784,
4173,
4732,
5006,
5498,
7621,
63574,
18847,
4163,
3637,
3323,
3145,
3059,
2970,
2998,
2836,
2666,
3587,
98614,
33553,
6362,
16445,
1845,
1689,
1683,
1804,
1740,
1761,
1720,
1591,
1578,
1442,
1527,
1611,
1378,
1283,
1201,
1223,
1227,
1099,
1044,
996,
1028,
1039,
1003,
1123,
912,
897,
867,
799,
798,
775,
719,
715,
676,
671,
614,
640,
575,
576,
625,
572,
544,
515,
462,
429,
441,
462,
474,
450,
403,
392,
391,
355,
368,
342,
322,
301,
294,
264,
290,
263,
225,
230,
223,
245,
218,
201,
171,
184,
142,
149,
148,
150,
148,
124,
121,
109,
110,
98,
103,
86,
74,
77,
69,
71,
64,
60,
69,
64,
58,
52,
41,
43,
31,
32,
30,
26,
29,
23,
22,
27,
25,
6,
14,
14,
7,
13,
7,
6,
5,
2,
4,
0,
0,
0,
0,
1,
0,
1,
0,
0,
0,
0,
0,
0,
0,
0,
1,
1,
0,
0,
0,
0,
0,
0,
0,
0,
0,
0,
0,
0,
0,
0,
0,
0,
0,
0,
0,
0,
0,
0,
0,
0,
0,
0,
0,
0,
0,
0,
0,
0,
0,
0,
0,
0,
0,
0,
0,
0,
0,
0,
0,
0,
0,
0,
0,
0,
0,
0,
0,
0,
0,
0,
0,
0,
0,
0,
0,
0,
0,
0,
0,
0,
0,
0,
0,
0,
0,
0,
0,
0,
0,
0,
0,
0,
0,
0,
0,
0,
0,
0,
0,
0,
0,
0,
0,
0,
0,
0,
0,
0,
0,
0,
0,
0,
0,
0,
0,
0,
0,
0,
0,
0,
0,
0,
0,
0,
0,
0,
0,
0,
0,
0,
0,
0,
0,
0,
0,
0,
0,
0,
0,
0,
0,
0,
0,
0,
0,
0,
0,
0,
0,
0,
0,
0,
#ENDOFDATA   :