File: N132962/Quantification/20 keV/MMM1/SPI MM1 Anhydrite[4][4].msa
#FORMAT      : EMSA/MAS Spectral Data File
#VERSION     : 1.0
#TITLE       : SPI MM1 Anhydrite[4][all]
#DATE        : 11-MAR-2025
#TIME        : 13:48
#OWNER       : Unknown
#NPOINTS     : 4096
#NCOLUMNS    : 1
#XUNITS      : eV
#YUNITS      : counts
#DATATYPE    : Y
#XPERCHAN    : 9.99778
#OFFSET      : 1.69135
#BEAMKV      : 20
#SIGNALTYPE  : EDS
#ELEVANGLE   : 35
#AZIMANGLE   : 0
#LIVETIME    : 239.884
#REALTIME    : 255.076
#PROBECUR    : 1.02853
#TAUWIND     : 0
#TDEADLYR    : 0
#TACTLYR     : 0.045
#TALWIND     : 0.025
#CHOFFSET    : 0.0
#XLABEL      : Energy (eV)
#YLABEL      : Counts
#XPOSITION   : 5.02286
#YPOSITION   : -5.00723
#ZPOSITION   : 30.9284
#EDSDET      : SD
##SPECIMEN   : SPI MM1 Anhydrite[4][all]
##D2STDCMP   : Anhydrite,(O:47.0085),(S:23.5529),(Ca:29.4387),5.0
##DET_HASH   : 12273538-fd48-a23f-0a19-f1e6fa85caef
##CALIB_HASH : 6abaa72c-aa41-8738-0be9-f592914732f3
##WORKING    : 15.0 mm
##DET_NAME   : EDAX All
##DET_MODE   : MediumLE
#SPECTRUM    :
23,
687,
11842,
3271,
30521,
2277,
2619,
2988,
3603,
3980,
4428,
4817,
4979,
7258,
5861,
4601,
49210,
42018,
7047,
2714,
2752,
2736,
2554,
2543,
2443,
2965,
71740,
24157,
4937,
12193,
1859,
1684,
1663,
1691,
1439,
1512,
1452,
1440,
1398,
1345,
1307,
1272,
1228,
1412,
1156,
1207,
1176,
1004,
960,
1004,
967,
938,
930,
977,
838,
837,
738,
759,
788,
724,
686,
686,
650,
644,
629,
595,
586,
591,
539,
488,
530,
484,
487,
483,
411,
419,
426,
427,
361,
329,
371,
329,
331,
329,
290,
292,
274,
237,
232,
209,
215,
219,
190,
164,
180,
180,
162,
163,
137,
138,
140,
127,
122,
123,
101,
119,
108,
95,
80,
87,
71,
81,
75,
63,
70,
60,
59,
49,
55,
39,
37,
42,
36,
23,
32,
21,
20,
15,
24,
11,
9,
19,
12,
14,
10,
7,
12,
5,
3,
3,
5,
4,
2,
0,
0,
1,
0,
0,
0,
0,
0,
0,
0,
0,
1,
0,
0,
0,
0,
0,
0,
0,
0,
0,
0,
0,
0,
0,
0,
0,
0,
0,
0,
0,
0,
0,
0,
0,
0,
1,
0,
0,
0,
0,
0,
0,
0,
0,
0,
0,
0,
0,
0,
0,
0,
0,
0,
0,
0,
0,
0,
0,
0,
0,
0,
0,
0,
0,
0,
0,
0,
0,
0,
0,
0,
0,
0,
0,
0,
0,
0,
0,
0,
0,
0,
0,
0,
0,
0,
0,
0,
0,
0,
0,
0,
0,
0,
0,
0,
0,
0,
0,
0,
0,
0,
0,
0,
0,
0,
0,
0,
0,
0,
0,
0,
0,
0,
0,
0,
0,
0,
0,
0,
0,
0,
0,
0,
0,
0,
0,
0,
0,
0,
0,
0,
0,
0,
0,
0,
0,
0,
0,
0,
0,
0,
0,
0,
0,
0,
0,
0,
0,
0,
0,
#ENDOFDATA   :