File: N132962/Quantification/20 keV/MMM1/SPI MM1 Fluorapatite[7][4].msa
#FORMAT      : EMSA/MAS Spectral Data File
#VERSION     : 1.0
#TITLE       : SPI MM1 Fluorapatite[7][all]
#DATE        : 11-MAR-2025
#TIME        : 14:44
#OWNER       : Unknown
#NPOINTS     : 4096
#NCOLUMNS    : 1
#XUNITS      : eV
#YUNITS      : counts
#DATATYPE    : Y
#XPERCHAN    : 9.99778
#OFFSET      : 1.69135
#BEAMKV      : 20
#SIGNALTYPE  : EDS
#ELEVANGLE   : 35
#AZIMANGLE   : 0
#LIVETIME    : 239.875
#REALTIME    : 255.652
#PROBECUR    : 1.02809
#TAUWIND     : 0
#TDEADLYR    : 0
#TACTLYR     : 0.045
#TALWIND     : 0.025
#CHOFFSET    : 0.0
#XLABEL      : Energy (eV)
#YLABEL      : Counts
#XPOSITION   : -2.66226
#YPOSITION   : 1.85912
#ZPOSITION   : 30.9284
#EDSDET      : SD
##SPECIMEN   : SPI MM1 Fluorapatite[7][all]
##D2STDCMP   : Fluorapatite,(O:35.868),(F:3.5492),(P:23.146),(Ca:37.4368)
##DET_HASH   : 12273538-fd48-a23f-0a19-f1e6fa85caef
##CALIB_HASH : 6abaa72c-aa41-8738-0be9-f592914732f3
##WORKING    : 15.0 mm
##DET_NAME   : EDAX All
##DET_MODE   : MediumLE
#SPECTRUM    :
26,
264,
17926,
3022,
20938,
6373,
2742,
3328,
3773,
4287,
4769,
5102,
5627,
7447,
63627,
18956,
4304,
3626,
3319,
3081,
3053,
3013,
3049,
2997,
2702,
3647,
99031,
32979,
6527,
16312,
1958,
1720,
1660,
1694,
1678,
1725,
1687,
1710,
1697,
1443,
1469,
1638,
1430,
1326,
1272,
1236,
1265,
1130,
1033,
1044,
1087,
1002,
1015,
987,
877,
863,
802,
842,
796,
747,
730,
679,
715,
621,
643,
638,
606,
611,
537,
548,
542,
517,
530,
476,
467,
463,
448,
437,
387,
340,
399,
360,
339,
328,
300,
300,
292,
261,
272,
249,
250,
243,
245,
211,
215,
212,
160,
178,
153,
158,
164,
160,
147,
128,
106,
125,
123,
103,
94,
83,
78,
79,
69,
85,
64,
73,
60,
57,
55,
33,
49,
38,
30,
27,
33,
23,
22,
30,
27,
13,
12,
23,
21,
12,
14,
13,
10,
13,
8,
3,
1,
4,
1,
2,
0,
1,
0,
0,
0,
0,
0,
0,
0,
0,
0,
0,
0,
0,
0,
0,
0,
0,
0,
0,
0,
0,
0,
0,
0,
0,
0,
0,
0,
0,
0,
0,
0,
0,
0,
0,
0,
0,
0,
0,
0,
0,
1,
0,
0,
0,
0,
0,
0,
0,
0,
0,
0,
0,
0,
0,
0,
0,
0,
0,
0,
0,
0,
0,
0,
0,
0,
0,
0,
0,
0,
0,
0,
0,
0,
0,
0,
0,
0,
0,
0,
0,
0,
0,
0,
0,
0,
0,
0,
0,
0,
0,
0,
0,
0,
0,
0,
0,
0,
0,
0,
0,
0,
0,
0,
0,
0,
0,
0,
0,
0,
0,
0,
0,
0,
0,
0,
0,
0,
0,
0,
0,
0,
0,
0,
0,
0,
0,
0,
0,
0,
0,
0,
0,
0,
0,
0,
0,
0,
0,
0,
0,
0,
0,
0,
0,
0,
0,
0,
0,
#ENDOFDATA   :