File: N132962/Quantification/20 keV/MMM1/SPI MM1 Chlorite[6][4].msa
#FORMAT      : EMSA/MAS Spectral Data File
#VERSION     : 1.0
#TITLE       : SPI MM1dup Chlorite[6][all]
#DATE        : 12-MAR-2025
#TIME        : 14:25
#OWNER       : Unknown
#NPOINTS     : 4096
#NCOLUMNS    : 1
#XUNITS      : eV
#YUNITS      : counts
#DATATYPE    : Y
#XPERCHAN    : 9.99778
#OFFSET      : 1.69135
#BEAMKV      : 20
#SIGNALTYPE  : EDS
#ELEVANGLE   : 35
#AZIMANGLE   : 0
#LIVETIME    : 239.773
#REALTIME    : 254.573
#PROBECUR    : 1.02867
#TAUWIND     : 0
#TDEADLYR    : 0
#TACTLYR     : 0.045
#TALWIND     : 0.025
#CHOFFSET    : 0.0
#XLABEL      : Energy (eV)
#YLABEL      : Counts
#XPOSITION   : 6.52357
#YPOSITION   : 0.0255
#ZPOSITION   : 31.03608
#EDSDET      : SD
##SPECIMEN   : SPI MM1dup Chlorite[6][all]
##DET_HASH   : 12273538-fd48-a23f-0a19-f1e6fa85caef
##CALIB_HASH : 6abaa72c-aa41-8738-0be9-f592914732f3
##WORKING    : 15.0 mm
##DET_NAME   : EDAX All
##DET_MODE   : MediumLE
#SPECTRUM    :
19,
179,
8880,
7537,
80467,
4308,
2715,
3118,
4590,
150639,
6445,
22073,
28185,
14148,
2251,
2135,
2429,
2171,
2283,
2153,
2094,
2180,
2017,
1940,
1847,
1863,
1718,
1626,
1533,
1475,
1424,
1426,
1423,
1320,
1260,
1262,
1181,
1136,
1917,
3255,
1067,
946,
1217,
1080,
901,
1863,
4182,
849,
762,
790,
1135,
877,
660,
824,
688,
614,
584,
539,
571,
557,
518,
475,
488,
413,
421,
429,
421,
386,
372,
357,
378,
378,
303,
331,
326,
310,
291,
285,
298,
233,
249,
233,
209,
203,
226,
195,
179,
176,
157,
157,
140,
171,
159,
128,
150,
130,
124,
120,
102,
118,
78,
101,
104,
78,
95,
69,
79,
67,
60,
62,
68,
42,
47,
30,
37,
46,
45,
32,
30,
27,
26,
31,
15,
23,
28,
18,
24,
11,
14,
14,
8,
6,
14,
7,
11,
4,
2,
0,
4,
0,
1,
0,
1,
0,
0,
0,
0,
0,
0,
0,
0,
0,
0,
0,
0,
0,
0,
0,
0,
0,
0,
0,
0,
0,
0,
0,
0,
0,
0,
0,
0,
0,
0,
0,
0,
0,
0,
0,
0,
0,
0,
0,
0,
0,
0,
0,
0,
0,
0,
0,
0,
0,
0,
0,
0,
0,
0,
0,
0,
0,
0,
0,
0,
0,
0,
0,
0,
0,
0,
0,
0,
0,
0,
0,
0,
0,
0,
0,
0,
0,
0,
0,
0,
0,
0,
0,
0,
0,
0,
0,
0,
0,
0,
0,
0,
0,
0,
0,
0,
0,
0,
0,
0,
0,
0,
0,
0,
0,
0,
0,
0,
0,
0,
0,
0,
0,
0,
0,
0,
0,
0,
0,
0,
0,
0,
0,
0,
0,
0,
0,
0,
0,
0,
0,
0,
0,
0,
0,
0,
0,
0,
0,
0,
0,
0,
0,
0,
0,
0,
0,
0,
0,
0,
0,
#ENDOFDATA   :