File: N132962/Quantification/20 keV/MMM1/SPI MM1 Albite[7][4].msa
#FORMAT      : EMSA/MAS Spectral Data File
#VERSION     : 1.0
#TITLE       : SPI MM1 Albite[7][all]
#DATE        : 11-MAR-2025
#TIME        : 12:56
#OWNER       : Unknown
#NPOINTS     : 4096
#NCOLUMNS    : 1
#XUNITS      : eV
#YUNITS      : counts
#DATATYPE    : Y
#XPERCHAN    : 9.99778
#OFFSET      : 1.69135
#BEAMKV      : 20
#SIGNALTYPE  : EDS
#ELEVANGLE   : 35
#AZIMANGLE   : 0
#LIVETIME    : 239.847
#REALTIME    : 255.976
#PROBECUR    : 1.02699
#TAUWIND     : 0
#TDEADLYR    : 0
#TACTLYR     : 0.045
#TALWIND     : 0.025
#CHOFFSET    : 0.0
#XLABEL      : Energy (eV)
#YLABEL      : Counts
#XPOSITION   : 3.40978
#YPOSITION   : -7.10632
#ZPOSITION   : 30.9284
#EDSDET      : SD
##SPECIMEN   : SPI MM1 Albite[7][all]
##D2STDCMP   : Albite,(O:48.8112),(Na:8.7674),(Al:10.2897),(Si:32.1316)
##DET_HASH   : 12273538-fd48-a23f-0a19-f1e6fa85caef
##CALIB_HASH : 6abaa72c-aa41-8738-0be9-f592914732f3
##WORKING    : 15.0 mm
##DET_NAME   : EDAX All
##DET_MODE   : MediumLE
#SPECTRUM    :
25,
186,
7859,
6407,
67198,
2044,
2800,
14157,
5673,
3753,
9388,
33547,
73865,
34621,
2197,
2076,
2745,
2162,
2184,
2121,
2250,
2108,
2030,
2240,
2241,
2146,
2093,
1798,
1617,
1632,
1520,
1399,
1470,
1396,
1337,
1258,
1196,
1132,
1198,
1131,
1086,
1019,
1008,
968,
928,
876,
946,
846,
839,
837,
781,
749,
710,
682,
666,
686,
620,
614,
553,
557,
536,
475,
512,
491,
488,
442,
428,
387,
411,
393,
373,
407,
380,
343,
335,
347,
294,
316,
267,
281,
247,
263,
240,
221,
230,
197,
194,
179,
167,
159,
185,
148,
152,
138,
153,
131,
129,
124,
102,
115,
95,
102,
87,
80,
84,
84,
74,
70,
65,
54,
64,
56,
51,
48,
50,
52,
41,
34,
33,
34,
31,
28,
28,
27,
27,
13,
14,
14,
14,
9,
6,
5,
14,
11,
7,
6,
6,
8,
2,
3,
3,
2,
0,
0,
0,
0,
0,
0,
0,
0,
0,
0,
0,
0,
0,
0,
0,
0,
0,
1,
0,
0,
0,
0,
0,
0,
0,
0,
0,
0,
1,
0,
0,
0,
0,
0,
1,
0,
0,
0,
0,
0,
0,
0,
0,
0,
0,
0,
0,
0,
0,
0,
0,
0,
0,
0,
0,
0,
0,
0,
0,
0,
0,
0,
0,
0,
0,
0,
0,
0,
0,
0,
0,
0,
0,
0,
0,
0,
0,
0,
0,
0,
0,
0,
0,
0,
0,
0,
0,
0,
0,
0,
0,
0,
0,
0,
0,
0,
0,
0,
0,
0,
0,
0,
0,
0,
0,
0,
0,
0,
0,
0,
0,
0,
0,
0,
0,
0,
0,
0,
0,
0,
0,
0,
0,
0,
0,
0,
0,
0,
0,
0,
0,
0,
0,
0,
0,
0,
0,
0,
0,
0,
0,
0,
0,
0,
0,
0,
0,
0,
0,
0,
0,
0,
#ENDOFDATA   :