File: N132962/Quantification/20 keV/MMM1/SPI MM1 Crocoite[6][4].msa
#FORMAT      : EMSA/MAS Spectral Data File
#VERSION     : 1.0
#TITLE       : SPI MM1dup Crocoite[6][all]
#DATE        : 12-MAR-2025
#TIME        : 13:56
#OWNER       : Unknown
#NPOINTS     : 4096
#NCOLUMNS    : 1
#XUNITS      : eV
#YUNITS      : counts
#DATATYPE    : Y
#XPERCHAN    : 9.99778
#OFFSET      : 1.69135
#BEAMKV      : 20
#SIGNALTYPE  : EDS
#ELEVANGLE   : 35
#AZIMANGLE   : 0
#LIVETIME    : 239.481
#REALTIME    : 261.4781
#PROBECUR    : 1.02627
#TAUWIND     : 0
#TDEADLYR    : 0
#TACTLYR     : 0.045
#TALWIND     : 0.025
#CHOFFSET    : 0.0
#XLABEL      : Energy (eV)
#YLABEL      : Counts
#XPOSITION   : -1.16099
#YPOSITION   : -0.58738
#ZPOSITION   : 31.03608
#EDSDET      : SD
##SPECIMEN   : SPI MM1dup Crocoite[6][all]
##DET_HASH   : 12273538-fd48-a23f-0a19-f1e6fa85caef
##CALIB_HASH : 6abaa72c-aa41-8738-0be9-f592914732f3
##WORKING    : 15.0 mm
##DET_NAME   : EDAX All
##DET_MODE   : MediumLE
#SPECTRUM    :
22,
740,
18653,
6601,
29920,
6502,
5320,
5774,
6345,
7015,
7984,
8832,
8786,
17685,
8638,
8833,
17230,
137135,
22858,
11424,
4928,
5467,
6693,
5161,
4667,
4810,
4867,
4636,
4362,
4471,
4503,
4497,
4328,
4251,
4436,
4334,
4275,
4047,
14410,
32120,
3978,
3809,
6883,
5929,
3331,
3366,
3657,
3298,
3209,
3106,
3079,
2895,
2875,
2948,
2788,
2704,
2667,
2638,
2517,
2603,
2446,
2273,
2210,
2209,
2190,
2307,
2414,
2027,
1982,
1811,
1819,
1829,
1701,
1709,
2649,
9870,
5416,
1644,
1485,
1442,
1373,
1467,
1268,
1213,
1171,
1222,
1194,
1201,
1183,
1725,
4500,
1832,
1129,
1048,
834,
760,
739,
699,
656,
643,
663,
625,
628,
599,
525,
765,
664,
503,
523,
470,
385,
421,
372,
344,
331,
307,
267,
284,
255,
251,
215,
189,
195,
190,
174,
164,
156,
159,
139,
119,
117,
105,
76,
64,
55,
59,
53,
40,
39,
37,
26,
16,
10,
4,
2,
9,
1,
3,
3,
1,
5,
2,
1,
1,
6,
1,
3,
2,
2,
0,
4,
1,
2,
3,
1,
2,
1,
3,
1,
1,
0,
0,
0,
1,
1,
1,
1,
1,
2,
1,
1,
1,
1,
0,
1,
0,
1,
0,
3,
0,
0,
0,
1,
2,
0,
1,
1,
0,
0,
0,
0,
0,
0,
0,
0,
0,
0,
0,
0,
0,
0,
0,
0,
0,
0,
0,
0,
0,
0,
0,
0,
0,
1,
0,
2,
0,
0,
0,
0,
0,
1,
0,
0,
0,
0,
0,
1,
0,
0,
0,
0,
0,
0,
0,
0,
0,
0,
0,
0,
0,
0,
0,
0,
0,
0,
0,
0,
0,
0,
0,
0,
0,
0,
0,
0,
0,
0,
0,
0,
0,
0,
0,
0,
0,
0,
0,
0,
0,
0,
0,
0,
0,
0,
0,
0,
0,
0,
0,
0,
0,
0,
0,
0,
0,
#ENDOFDATA   :