File: N132962/Quantification/20 keV/MMM1/SPI MM1 Arsenopyrite[3][4].msa
#FORMAT      : EMSA/MAS Spectral Data File
#VERSION     : 1.0
#TITLE       : SPI MM1 Arsenopyrite[3][all]
#DATE        : 11-MAR-2025
#TIME        : 13:38
#OWNER       : Unknown
#NPOINTS     : 4096
#NCOLUMNS    : 1
#XUNITS      : eV
#YUNITS      : counts
#DATATYPE    : Y
#XPERCHAN    : 9.99778
#OFFSET      : 1.69135
#BEAMKV      : 20
#SIGNALTYPE  : EDS
#ELEVANGLE   : 35
#AZIMANGLE   : 0
#LIVETIME    : 239.823
#REALTIME    : 260.779
#PROBECUR    : 1.02853
#TAUWIND     : 0
#TDEADLYR    : 0
#TACTLYR     : 0.045
#TALWIND     : 0.025
#CHOFFSET    : 0.0
#XLABEL      : Energy (eV)
#YLABEL      : Counts
#XPOSITION   : 2.19268
#YPOSITION   : -4.96443
#ZPOSITION   : 30.9284
#EDSDET      : SD
##SPECIMEN   : SPI MM1 Arsenopyrite[3][all]
##D2STDCMP   : Arsenopyrite,(S:19.6897),(Fe:34.2972),(As:46.0131),6.0
##DET_HASH   : 12273538-fd48-a23f-0a19-f1e6fa85caef
##CALIB_HASH : 6abaa72c-aa41-8738-0be9-f592914732f3
##WORKING    : 15.0 mm
##DET_NAME   : EDAX All
##DET_MODE   : MediumLE
#SPECTRUM    :
27,
358,
11718,
3357,
11492,
58162,
4946,
5346,
14587,
145959,
10432,
4200,
4456,
4849,
4735,
4873,
33052,
26746,
7770,
4362,
4196,
4216,
4284,
4128,
4113,
4099,
4243,
3863,
3655,
3620,
3745,
3530,
3457,
3667,
3418,
3227,
3092,
3021,
2986,
2815,
2842,
2750,
2626,
2586,
2704,
19569,
57595,
2824,
2269,
2388,
8550,
5209,
1744,
1825,
1839,
1890,
1629,
1681,
1505,
1578,
1556,
1485,
1432,
1374,
1294,
1304,
1249,
1260,
1205,
1123,
1172,
1087,
1068,
1099,
2569,
17789,
6062,
985,
836,
795,
819,
845,
833,
1823,
2661,
902,
600,
589,
584,
524,
541,
544,
505,
519,
469,
429,
388,
396,
368,
364,
340,
333,
286,
266,
267,
288,
250,
228,
220,
219,
211,
196,
190,
172,
184,
150,
150,
151,
140,
109,
117,
116,
123,
71,
72,
111,
75,
67,
64,
69,
51,
46,
42,
38,
32,
29,
27,
15,
21,
21,
10,
13,
5,
8,
0,
2,
2,
0,
2,
1,
3,
2,
1,
1,
1,
2,
0,
2,
0,
1,
1,
2,
1,
2,
0,
0,
0,
1,
1,
1,
0,
1,
0,
0,
0,
2,
0,
0,
1,
1,
0,
0,
0,
0,
0,
1,
0,
0,
0,
0,
0,
1,
0,
0,
0,
0,
0,
0,
0,
0,
1,
0,
0,
0,
0,
0,
0,
0,
0,
0,
0,
0,
0,
0,
0,
0,
0,
0,
0,
0,
0,
0,
0,
0,
0,
0,
0,
0,
0,
1,
0,
0,
0,
0,
0,
0,
0,
0,
0,
0,
0,
0,
0,
0,
0,
0,
0,
0,
0,
0,
0,
0,
0,
0,
0,
0,
0,
0,
0,
0,
0,
0,
0,
0,
0,
0,
0,
0,
0,
0,
0,
0,
0,
0,
0,
0,
0,
0,
0,
0,
0,
0,
0,
0,
0,
0,
0,
0,
0,
0,
0,
0,
0,
0,
#ENDOFDATA   :