File: N132962/Quantification/20 keV/MMM1/SPI MM1 Chlorite[4][4].msa
#FORMAT      : EMSA/MAS Spectral Data File
#VERSION     : 1.0
#TITLE       : SPI MM1dup Chlorite[4][all]
#DATE        : 12-MAR-2025
#TIME        : 14:22
#OWNER       : Unknown
#NPOINTS     : 4096
#NCOLUMNS    : 1
#XUNITS      : eV
#YUNITS      : counts
#DATATYPE    : Y
#XPERCHAN    : 9.99778
#OFFSET      : 1.69135
#BEAMKV      : 20
#SIGNALTYPE  : EDS
#ELEVANGLE   : 35
#AZIMANGLE   : 0
#LIVETIME    : 239.83
#REALTIME    : 254.707
#PROBECUR    : 1.02867
#TAUWIND     : 0
#TDEADLYR    : 0
#TACTLYR     : 0.045
#TALWIND     : 0.025
#CHOFFSET    : 0.0
#XLABEL      : Energy (eV)
#YLABEL      : Counts
#XPOSITION   : 6.30705
#YPOSITION   : -0.18685
#ZPOSITION   : 31.03608
#EDSDET      : SD
##SPECIMEN   : SPI MM1dup Chlorite[4][all]
##DET_HASH   : 12273538-fd48-a23f-0a19-f1e6fa85caef
##CALIB_HASH : 6abaa72c-aa41-8738-0be9-f592914732f3
##WORKING    : 15.0 mm
##DET_NAME   : EDAX All
##DET_MODE   : MediumLE
#SPECTRUM    :
24,
203,
8542,
7621,
81215,
4334,
2648,
3097,
4821,
151929,
6432,
22356,
28424,
14109,
2150,
2101,
2439,
2149,
2391,
2129,
2046,
2104,
1977,
1962,
1878,
1853,
1721,
1644,
1652,
1560,
1515,
1454,
1369,
1386,
1263,
1298,
1156,
1114,
1787,
3226,
1038,
928,
1220,
1094,
904,
1986,
4269,
784,
730,
792,
1144,
914,
665,
850,
729,
578,
569,
550,
553,
558,
530,
480,
471,
438,
443,
465,
414,
393,
351,
386,
362,
349,
335,
326,
318,
316,
288,
245,
246,
256,
239,
248,
248,
192,
238,
193,
192,
181,
192,
156,
150,
150,
117,
137,
130,
112,
100,
114,
115,
109,
104,
83,
94,
92,
93,
80,
78,
55,
76,
57,
47,
43,
40,
32,
44,
48,
37,
36,
28,
26,
26,
29,
23,
29,
20,
18,
20,
16,
12,
14,
9,
8,
6,
11,
7,
3,
4,
5,
3,
4,
1,
1,
1,
0,
0,
0,
0,
0,
0,
0,
0,
0,
0,
0,
0,
0,
0,
0,
0,
0,
0,
1,
0,
0,
0,
0,
1,
0,
0,
1,
0,
0,
0,
0,
0,
0,
0,
0,
0,
0,
0,
0,
0,
0,
0,
0,
0,
0,
0,
0,
0,
0,
0,
0,
0,
0,
0,
0,
0,
0,
0,
0,
0,
0,
0,
0,
0,
0,
0,
0,
0,
0,
0,
0,
0,
0,
0,
0,
0,
0,
0,
0,
0,
0,
0,
0,
0,
0,
0,
0,
0,
0,
0,
0,
0,
0,
0,
0,
0,
0,
0,
0,
0,
0,
0,
0,
0,
0,
0,
0,
0,
0,
0,
0,
0,
0,
0,
0,
0,
0,
0,
0,
0,
0,
0,
0,
0,
0,
0,
0,
0,
0,
0,
0,
0,
0,
0,
0,
0,
0,
0,
0,
0,
0,
0,
0,
0,
0,
0,
0,
0,
0,
0,
0,
#ENDOFDATA   :