File: N132962/Quantification/20 keV/MMM1/SPI MM1 Andradite[2][4].msa
#FORMAT      : EMSA/MAS Spectral Data File
#VERSION     : 1.0
#TITLE       : SPI MM1 Andradite[2][all]
#DATE        : 11-MAR-2025
#TIME        : 13:09
#OWNER       : Unknown
#NPOINTS     : 4096
#NCOLUMNS    : 1
#XUNITS      : eV
#YUNITS      : counts
#DATATYPE    : Y
#XPERCHAN    : 9.99778
#OFFSET      : 1.69135
#BEAMKV      : 20
#SIGNALTYPE  : EDS
#ELEVANGLE   : 35
#AZIMANGLE   : 0
#LIVETIME    : 239.888
#REALTIME    : 255.396
#PROBECUR    : 1.02699
#TAUWIND     : 0
#TDEADLYR    : 0
#TACTLYR     : 0.045
#TALWIND     : 0.025
#CHOFFSET    : 0.0
#XLABEL      : Energy (eV)
#YLABEL      : Counts
#XPOSITION   : -2.20217
#YPOSITION   : -8.01797
#ZPOSITION   : 30.9284
#EDSDET      : SD
##SPECIMEN   : SPI MM1 Andradite[2][all]
##D2STDCMP   : Andradite,(O:37.7805),(Si:16.5802),(Ca:23.6603),(Fe:21.979),3.86
##DET_HASH   : 12273538-fd48-a23f-0a19-f1e6fa85caef
##CALIB_HASH : 6abaa72c-aa41-8738-0be9-f592914732f3
##WORKING    : 15.0 mm
##DET_NAME   : EDAX All
##DET_MODE   : MediumLE
#SPECTRUM    :
24,
194,
12688,
3995,
31140,
14044,
2438,
2892,
3377,
4102,
5469,
11001,
42536,
21246,
4557,
3393,
3732,
3378,
3368,
3177,
3283,
3146,
3001,
3068,
2856,
3347,
61889,
21548,
5025,
10918,
2080,
2030,
1892,
1927,
1811,
1747,
1714,
1664,
1617,
1725,
1528,
1512,
1955,
1387,
1400,
9291,
26198,
1467,
1263,
1237,
4090,
2556,
966,
1036,
910,
961,
867,
845,
841,
825,
837,
764,
731,
685,
736,
672,
684,
620,
585,
629,
566,
511,
611,
465,
484,
481,
487,
431,
422,
375,
380,
377,
394,
335,
317,
340,
323,
283,
290,
302,
241,
274,
225,
248,
196,
202,
208,
189,
197,
152,
165,
143,
134,
143,
122,
132,
122,
127,
108,
96,
98,
93,
82,
72,
80,
79,
55,
72,
48,
40,
44,
46,
53,
32,
40,
25,
30,
30,
33,
22,
22,
18,
18,
15,
8,
14,
12,
5,
12,
3,
3,
1,
0,
1,
0,
0,
0,
0,
0,
1,
0,
1,
0,
0,
0,
0,
1,
0,
1,
0,
0,
0,
0,
0,
0,
0,
1,
1,
0,
1,
0,
0,
0,
0,
0,
0,
0,
0,
0,
0,
0,
0,
0,
0,
0,
0,
0,
0,
0,
0,
0,
0,
0,
0,
0,
0,
0,
0,
0,
0,
0,
0,
0,
0,
0,
0,
0,
0,
0,
0,
0,
0,
0,
0,
0,
0,
0,
0,
0,
0,
0,
0,
0,
0,
0,
0,
0,
0,
0,
0,
0,
0,
0,
0,
0,
0,
0,
0,
0,
0,
0,
0,
0,
0,
0,
0,
0,
0,
0,
0,
0,
0,
0,
0,
0,
0,
0,
0,
0,
0,
0,
0,
0,
0,
0,
0,
0,
0,
0,
0,
0,
0,
0,
0,
0,
0,
0,
0,
0,
0,
0,
0,
0,
0,
0,
0,
0,
0,
0,
0,
0,
0,
0,
0,
#ENDOFDATA   :