File: N132962/Quantification/20 keV/MMM1/SPI MM1 Chlorite[8][4].msa
#FORMAT      : EMSA/MAS Spectral Data File
#VERSION     : 1.0
#TITLE       : SPI MM1dup Chlorite[8][all]
#DATE        : 12-MAR-2025
#TIME        : 14:27
#OWNER       : Unknown
#NPOINTS     : 4096
#NCOLUMNS    : 1
#XUNITS      : eV
#YUNITS      : counts
#DATATYPE    : Y
#XPERCHAN    : 9.99778
#OFFSET      : 1.69135
#BEAMKV      : 20
#SIGNALTYPE  : EDS
#ELEVANGLE   : 35
#AZIMANGLE   : 0
#LIVETIME    : 239.789
#REALTIME    : 254.6387
#PROBECUR    : 1.02867
#TAUWIND     : 0
#TDEADLYR    : 0
#TACTLYR     : 0.045
#TALWIND     : 0.025
#CHOFFSET    : 0.0
#XLABEL      : Energy (eV)
#YLABEL      : Counts
#XPOSITION   : 6.65681
#YPOSITION   : 0.17123
#ZPOSITION   : 31.03608
#EDSDET      : SD
##SPECIMEN   : SPI MM1dup Chlorite[8][all]
##DET_HASH   : 12273538-fd48-a23f-0a19-f1e6fa85caef
##CALIB_HASH : 6abaa72c-aa41-8738-0be9-f592914732f3
##WORKING    : 15.0 mm
##DET_NAME   : EDAX All
##DET_MODE   : MediumLE
#SPECTRUM    :
28,
223,
8649,
7603,
80604,
3954,
2710,
3169,
4534,
151708,
6624,
22192,
28472,
14406,
2255,
2093,
2477,
2178,
2347,
2156,
2082,
2121,
2012,
1926,
1813,
1834,
1715,
1707,
1549,
1459,
1518,
1501,
1400,
1311,
1247,
1287,
1189,
1192,
1900,
3244,
1043,
976,
1220,
1247,
951,
1859,
4153,
814,
797,
785,
1127,
900,
671,
817,
713,
598,
585,
571,
540,
551,
509,
528,
468,
457,
469,
418,
397,
421,
397,
384,
356,
346,
328,
340,
314,
307,
261,
285,
283,
279,
281,
228,
244,
226,
202,
181,
201,
182,
159,
175,
152,
149,
145,
139,
117,
126,
100,
110,
110,
115,
85,
115,
91,
92,
72,
72,
88,
69,
53,
84,
55,
53,
47,
51,
40,
47,
37,
36,
23,
27,
24,
23,
30,
21,
18,
22,
19,
18,
15,
18,
13,
7,
8,
9,
10,
5,
1,
3,
1,
3,
3,
0,
0,
0,
0,
0,
0,
0,
1,
0,
0,
1,
0,
0,
0,
0,
0,
0,
0,
0,
0,
0,
0,
0,
0,
1,
0,
0,
0,
0,
0,
0,
0,
0,
0,
0,
0,
0,
0,
0,
0,
0,
0,
0,
0,
0,
0,
0,
0,
0,
0,
0,
0,
0,
0,
0,
0,
0,
0,
0,
0,
0,
0,
0,
0,
0,
0,
0,
0,
0,
0,
0,
0,
0,
0,
0,
0,
0,
0,
0,
0,
0,
0,
0,
0,
0,
0,
0,
0,
0,
0,
0,
0,
0,
0,
0,
0,
0,
0,
0,
0,
0,
0,
0,
0,
0,
0,
0,
0,
0,
0,
0,
0,
0,
0,
0,
0,
0,
0,
0,
0,
0,
0,
0,
0,
0,
0,
0,
0,
0,
0,
0,
0,
0,
0,
0,
0,
0,
0,
0,
0,
0,
0,
0,
0,
0,
0,
0,
0,
0,
0,
0,
0,
0,
#ENDOFDATA   :