File: N132962/Quantification/20 keV/MMM1/SPI MM1 Diopside[3][4].msa
#FORMAT      : EMSA/MAS Spectral Data File
#VERSION     : 1.0
#TITLE       : SPI MM1dup Diopside[3][all]
#DATE        : 12-MAR-2025
#TIME        : 15:39
#OWNER       : Unknown
#NPOINTS     : 4096
#NCOLUMNS    : 1
#XUNITS      : eV
#YUNITS      : counts
#DATATYPE    : Y
#XPERCHAN    : 9.99778
#OFFSET      : 1.69135
#BEAMKV      : 20
#SIGNALTYPE  : EDS
#ELEVANGLE   : 35
#AZIMANGLE   : 0
#LIVETIME    : 239.855
#REALTIME    : 255.2693
#PROBECUR    : 1.02695
#TAUWIND     : 0
#TDEADLYR    : 0
#TACTLYR     : 0.045
#TALWIND     : 0.025
#CHOFFSET    : 0.0
#XLABEL      : Energy (eV)
#YLABEL      : Counts
#XPOSITION   : 2.1744
#YPOSITION   : 1.45927
#ZPOSITION   : 31.03608
#EDSDET      : SD
##SPECIMEN   : SPI MM1dup Diopside[3][all]
##D2STDCMP   : Diopside,(O:44.3298),(Mg:11.2237),(Si:25.939),(Ca:18.5075)
##DET_HASH   : 12273538-fd48-a23f-0a19-f1e6fa85caef
##CALIB_HASH : 6abaa72c-aa41-8738-0be9-f592914732f3
##WORKING    : 15.0 mm
##DET_NAME   : EDAX All
##DET_MODE   : MediumLE
#SPECTRUM    :
21,
176,
10139,
3947,
35743,
2596,
2728,
3696,
4466,
81494,
4104,
5358,
63273,
29988,
3341,
2689,
2972,
2616,
2714,
2551,
2468,
2535,
2486,
2405,
2294,
2781,
44937,
16069,
3615,
8338,
1730,
1573,
1566,
1534,
1410,
1451,
1361,
1321,
1369,
1463,
1213,
1200,
1255,
1136,
1041,
1313,
1866,
937,
906,
894,
1002,
908,
774,
849,
722,
671,
733,
694,
637,
668,
586,
624,
607,
580,
558,
518,
519,
462,
479,
450,
426,
435,
420,
416,
379,
357,
351,
360,
321,
331,
300,
288,
297,
288,
253,
244,
252,
203,
223,
222,
191,
183,
200,
174,
142,
141,
151,
139,
129,
122,
131,
121,
127,
113,
127,
96,
97,
73,
70,
88,
57,
67,
58,
55,
52,
39,
49,
47,
43,
39,
48,
39,
37,
27,
17,
23,
20,
16,
11,
15,
17,
10,
10,
8,
12,
5,
6,
11,
4,
2,
3,
1,
1,
0,
0,
0,
0,
0,
0,
0,
1,
0,
0,
0,
0,
1,
0,
0,
0,
0,
0,
0,
0,
0,
0,
0,
0,
0,
0,
0,
0,
0,
0,
0,
0,
0,
1,
0,
0,
0,
0,
0,
0,
0,
0,
0,
0,
0,
0,
0,
0,
0,
0,
0,
0,
0,
0,
0,
0,
0,
0,
0,
0,
0,
0,
0,
0,
0,
0,
0,
0,
0,
0,
0,
0,
0,
0,
0,
0,
0,
0,
0,
0,
0,
0,
0,
0,
0,
0,
0,
0,
0,
0,
0,
0,
0,
0,
0,
0,
0,
0,
0,
0,
0,
0,
0,
0,
0,
0,
0,
0,
0,
0,
0,
0,
0,
0,
0,
0,
0,
0,
0,
0,
0,
0,
0,
0,
0,
0,
0,
0,
0,
0,
0,
0,
0,
0,
0,
0,
0,
0,
0,
0,
0,
0,
0,
0,
0,
0,
0,
0,
0,
0,
0,
#ENDOFDATA   :