File: N132962/Quantification/20 keV/MMM1/SPI MM1 Diopside[1][4].msa
#FORMAT      : EMSA/MAS Spectral Data File
#VERSION     : 1.0
#TITLE       : SPI MM1dup Diopside[1][all]
#DATE        : 12-MAR-2025
#TIME        : 15:37
#OWNER       : Unknown
#NPOINTS     : 4096
#NCOLUMNS    : 1
#XUNITS      : eV
#YUNITS      : counts
#DATATYPE    : Y
#XPERCHAN    : 9.99778
#OFFSET      : 1.69135
#BEAMKV      : 20
#SIGNALTYPE  : EDS
#ELEVANGLE   : 35
#AZIMANGLE   : 0
#LIVETIME    : 239.75
#REALTIME    : 255.147
#PROBECUR    : 1.02695
#TAUWIND     : 0
#TDEADLYR    : 0
#TACTLYR     : 0.045
#TALWIND     : 0.025
#CHOFFSET    : 0.0
#XLABEL      : Energy (eV)
#YLABEL      : Counts
#XPOSITION   : 2.14221
#YPOSITION   : 1.50262
#ZPOSITION   : 31.03608
#EDSDET      : SD
##SPECIMEN   : SPI MM1dup Diopside[1][all]
##D2STDCMP   : Diopside,(O:44.3298),(Mg:11.2237),(Si:25.939),(Ca:18.5075)
##DET_HASH   : 12273538-fd48-a23f-0a19-f1e6fa85caef
##CALIB_HASH : 6abaa72c-aa41-8738-0be9-f592914732f3
##WORKING    : 15.0 mm
##DET_NAME   : EDAX All
##DET_MODE   : MediumLE
#SPECTRUM    :
27,
157,
9982,
4038,
35737,
2574,
2631,
3534,
4398,
80623,
4057,
5383,
63515,
30069,
3393,
2617,
3042,
2656,
2516,
2581,
2553,
2534,
2469,
2295,
2243,
2830,
44858,
15766,
3754,
8364,
1710,
1473,
1705,
1497,
1411,
1406,
1418,
1306,
1346,
1448,
1198,
1171,
1206,
1111,
1008,
1220,
1958,
965,
884,
949,
1026,
868,
839,
839,
741,
706,
725,
683,
680,
625,
645,
625,
549,
538,
543,
523,
479,
455,
469,
461,
466,
442,
396,
387,
393,
340,
355,
355,
293,
324,
326,
300,
294,
274,
256,
242,
223,
229,
227,
201,
190,
166,
182,
190,
148,
164,
160,
128,
137,
145,
114,
120,
131,
122,
85,
104,
73,
85,
82,
68,
77,
64,
71,
62,
56,
58,
54,
43,
43,
46,
39,
35,
32,
24,
23,
26,
25,
22,
16,
13,
11,
13,
14,
9,
11,
8,
3,
8,
1,
7,
3,
0,
1,
1,
1,
0,
0,
0,
0,
0,
0,
0,
0,
0,
0,
0,
1,
0,
0,
0,
0,
0,
0,
0,
0,
0,
0,
0,
0,
0,
0,
0,
0,
0,
0,
0,
0,
0,
0,
0,
0,
0,
0,
0,
0,
0,
0,
0,
0,
0,
0,
0,
0,
0,
0,
0,
0,
0,
0,
0,
0,
0,
0,
0,
0,
0,
0,
0,
0,
0,
0,
0,
0,
0,
0,
0,
0,
0,
0,
0,
0,
0,
0,
0,
0,
0,
0,
0,
0,
0,
0,
0,
0,
0,
0,
0,
0,
0,
0,
0,
0,
0,
0,
0,
0,
0,
0,
0,
0,
0,
0,
0,
0,
0,
0,
0,
0,
0,
0,
0,
0,
0,
0,
0,
0,
0,
0,
0,
0,
0,
0,
0,
0,
0,
0,
0,
0,
0,
0,
0,
0,
0,
0,
0,
0,
0,
0,
0,
0,
0,
0,
0,
0,
0,
#ENDOFDATA   :