File: N132962/Quantification/20 keV/MMM1/SPI MM1 Anhydrite[3][4].msa
#FORMAT      : EMSA/MAS Spectral Data File
#VERSION     : 1.0
#TITLE       : SPI MM1 Anhydrite[3][all]
#DATE        : 11-MAR-2025
#TIME        : 13:47
#OWNER       : Unknown
#NPOINTS     : 4096
#NCOLUMNS    : 1
#XUNITS      : eV
#YUNITS      : counts
#DATATYPE    : Y
#XPERCHAN    : 9.99778
#OFFSET      : 1.69135
#BEAMKV      : 20
#SIGNALTYPE  : EDS
#ELEVANGLE   : 35
#AZIMANGLE   : 0
#LIVETIME    : 239.8332
#REALTIME    : 255.025
#PROBECUR    : 1.02853
#TAUWIND     : 0
#TDEADLYR    : 0
#TACTLYR     : 0.045
#TALWIND     : 0.025
#CHOFFSET    : 0.0
#XLABEL      : Energy (eV)
#YLABEL      : Counts
#XPOSITION   : 4.94344
#YPOSITION   : -5.01385
#ZPOSITION   : 30.9284
#EDSDET      : SD
##SPECIMEN   : SPI MM1 Anhydrite[3][all]
##D2STDCMP   : Anhydrite,(O:47.0085),(S:23.5529),(Ca:29.4387),5.0
##DET_HASH   : 12273538-fd48-a23f-0a19-f1e6fa85caef
##CALIB_HASH : 6abaa72c-aa41-8738-0be9-f592914732f3
##WORKING    : 15.0 mm
##DET_NAME   : EDAX All
##DET_MODE   : MediumLE
#SPECTRUM    :
32,
676,
11735,
3400,
30467,
2292,
2617,
3067,
3572,
4118,
4543,
4669,
5004,
7283,
5862,
4604,
49042,
41878,
7054,
2752,
2870,
2668,
2516,
2497,
2491,
3018,
71468,
24211,
5047,
12259,
1806,
1648,
1587,
1721,
1524,
1505,
1482,
1435,
1380,
1368,
1302,
1232,
1264,
1437,
1093,
1202,
1162,
1020,
996,
981,
922,
1003,
900,
982,
874,
827,
796,
781,
742,
673,
672,
616,
671,
624,
631,
602,
565,
501,
535,
549,
519,
479,
429,
461,
444,
406,
394,
394,
360,
341,
365,
322,
308,
284,
277,
279,
285,
283,
235,
237,
229,
240,
214,
193,
198,
191,
176,
191,
154,
132,
122,
159,
134,
121,
123,
115,
118,
95,
81,
86,
86,
74,
83,
65,
64,
59,
44,
47,
54,
45,
45,
43,
35,
28,
34,
32,
29,
17,
25,
16,
20,
14,
15,
19,
11,
9,
13,
6,
7,
6,
1,
1,
0,
1,
1,
0,
0,
0,
1,
2,
0,
0,
0,
0,
0,
0,
0,
0,
0,
0,
0,
0,
0,
0,
0,
0,
0,
0,
0,
0,
0,
0,
0,
0,
0,
0,
0,
0,
0,
0,
0,
0,
0,
0,
0,
0,
0,
0,
0,
0,
0,
0,
0,
0,
0,
0,
0,
0,
0,
0,
0,
0,
0,
0,
0,
0,
0,
0,
0,
0,
0,
0,
0,
0,
0,
0,
0,
0,
0,
0,
0,
0,
0,
0,
0,
0,
0,
0,
0,
0,
0,
0,
0,
0,
0,
0,
0,
0,
0,
0,
0,
0,
0,
0,
0,
0,
0,
0,
0,
0,
0,
0,
0,
0,
0,
0,
0,
0,
0,
0,
0,
0,
0,
0,
0,
0,
0,
0,
0,
0,
0,
0,
0,
0,
0,
0,
0,
0,
0,
0,
0,
0,
0,
0,
0,
0,
0,
0,
0,
0,
0,
0,
0,
0,
#ENDOFDATA   :