File: N132962/Quantification/20 keV/MMM1/SPI MM1 Jadeite[4][4].msa
#FORMAT      : EMSA/MAS Spectral Data File
#VERSION     : 1.0
#TITLE       : SPI MM1dup Jadeite[4][all]
#DATE        : 12-MAR-2025
#TIME        : 16:33
#OWNER       : Unknown
#NPOINTS     : 4096
#NCOLUMNS    : 1
#XUNITS      : eV
#YUNITS      : counts
#DATATYPE    : Y
#XPERCHAN    : 9.99778
#OFFSET      : 1.69135
#BEAMKV      : 20
#SIGNALTYPE  : EDS
#ELEVANGLE   : 35
#AZIMANGLE   : 0
#LIVETIME    : 239.805
#REALTIME    : 255.589
#PROBECUR    : 1.02709
#TAUWIND     : 0
#TDEADLYR    : 0
#TACTLYR     : 0.045
#TALWIND     : 0.025
#CHOFFSET    : 0.0
#XLABEL      : Energy (eV)
#YLABEL      : Counts
#XPOSITION   : 1.00553
#YPOSITION   : 4.40574
#ZPOSITION   : 31.03608
#EDSDET      : SD
##SPECIMEN   : SPI MM1dup Jadeite[4][all]
##D2STDCMP   : Jadeite,(O:47.4904),(Na:11.3733),(Al:13.348),(Si:27.7883),5.0
##DET_HASH   : 12273538-fd48-a23f-0a19-f1e6fa85caef
##CALIB_HASH : 6abaa72c-aa41-8738-0be9-f592914732f3
##WORKING    : 15.0 mm
##DET_NAME   : EDAX All
##DET_MODE   : MediumLE
#SPECTRUM    :
28,
173,
7724,
6318,
66839,
1997,
2831,
18096,
6395,
3814,
10544,
39605,
60742,
28625,
2127,
2110,
2581,
2096,
2231,
2054,
2272,
2096,
1883,
2152,
1881,
2034,
1824,
1637,
1604,
1528,
1543,
1450,
1423,
1310,
1279,
1247,
1258,
1145,
1146,
1149,
1101,
992,
1057,
994,
926,
901,
1000,
823,
816,
767,
769,
698,
681,
677,
678,
613,
668,
613,
591,
582,
509,
517,
516,
456,
446,
445,
441,
418,
396,
405,
385,
363,
348,
366,
321,
333,
332,
276,
271,
239,
243,
268,
230,
234,
213,
190,
181,
169,
186,
170,
199,
152,
154,
135,
133,
122,
124,
129,
114,
90,
104,
119,
81,
84,
64,
70,
66,
59,
71,
59,
58,
43,
56,
45,
36,
30,
32,
34,
34,
28,
30,
24,
24,
24,
11,
21,
25,
18,
12,
14,
10,
11,
14,
8,
9,
3,
8,
2,
6,
2,
0,
1,
1,
0,
0,
0,
0,
0,
0,
0,
0,
0,
0,
0,
0,
0,
0,
0,
0,
0,
0,
0,
0,
0,
0,
0,
0,
0,
0,
0,
0,
0,
0,
0,
0,
0,
0,
0,
0,
0,
0,
0,
0,
0,
0,
0,
0,
0,
0,
0,
0,
0,
0,
0,
0,
0,
0,
0,
0,
0,
0,
0,
0,
0,
0,
0,
0,
0,
0,
0,
0,
0,
0,
0,
0,
0,
0,
0,
0,
0,
0,
0,
0,
0,
0,
0,
0,
0,
0,
0,
0,
0,
0,
0,
0,
0,
0,
0,
0,
0,
0,
0,
0,
0,
0,
0,
0,
0,
0,
0,
0,
0,
0,
0,
0,
0,
0,
0,
0,
0,
0,
0,
0,
0,
0,
0,
0,
0,
0,
0,
0,
0,
0,
0,
0,
0,
0,
0,
0,
0,
0,
0,
0,
0,
0,
0,
0,
0,
0,
0,
0,
0,
0,
0,
#ENDOFDATA   :