File: N132962/Quantification/20 keV/MMM1/SPI MM1 Arsenopyrite[4][4].msa
#FORMAT      : EMSA/MAS Spectral Data File
#VERSION     : 1.0
#TITLE       : SPI MM1 Arsenopyrite[4][all]
#DATE        : 11-MAR-2025
#TIME        : 13:39
#OWNER       : Unknown
#NPOINTS     : 4096
#NCOLUMNS    : 1
#XUNITS      : eV
#YUNITS      : counts
#DATATYPE    : Y
#XPERCHAN    : 9.99778
#OFFSET      : 1.69135
#BEAMKV      : 20
#SIGNALTYPE  : EDS
#ELEVANGLE   : 35
#AZIMANGLE   : 0
#LIVETIME    : 239.829
#REALTIME    : 260.78
#PROBECUR    : 1.02853
#TAUWIND     : 0
#TDEADLYR    : 0
#TACTLYR     : 0.045
#TALWIND     : 0.025
#CHOFFSET    : 0.0
#XLABEL      : Energy (eV)
#YLABEL      : Counts
#XPOSITION   : 2.18831
#YPOSITION   : -5.01896
#ZPOSITION   : 30.9284
#EDSDET      : SD
##SPECIMEN   : SPI MM1 Arsenopyrite[4][all]
##D2STDCMP   : Arsenopyrite,(S:19.6897),(Fe:34.2972),(As:46.0131),6.0
##DET_HASH   : 12273538-fd48-a23f-0a19-f1e6fa85caef
##CALIB_HASH : 6abaa72c-aa41-8738-0be9-f592914732f3
##WORKING    : 15.0 mm
##DET_NAME   : EDAX All
##DET_MODE   : MediumLE
#SPECTRUM    :
21,
376,
11744,
3448,
11350,
57734,
4969,
5494,
14634,
146296,
10514,
4333,
4489,
4803,
4911,
4988,
33362,
26644,
7516,
4333,
4104,
4168,
4077,
4150,
4153,
4098,
4111,
3888,
3742,
3688,
3583,
3528,
3454,
3637,
3420,
3137,
3127,
2985,
3012,
2870,
2799,
2744,
2622,
2683,
2682,
20090,
57277,
2892,
2272,
2435,
8440,
5199,
1822,
1844,
1789,
1810,
1705,
1560,
1554,
1521,
1519,
1406,
1412,
1389,
1350,
1289,
1227,
1230,
1213,
1145,
1153,
1052,
1108,
1081,
2581,
17610,
5882,
942,
872,
869,
812,
842,
793,
1839,
2769,
863,
655,
597,
605,
517,
547,
550,
519,
518,
423,
422,
444,
429,
380,
350,
350,
298,
339,
285,
265,
276,
267,
233,
237,
229,
195,
189,
179,
166,
162,
146,
150,
119,
123,
123,
115,
135,
90,
76,
81,
96,
68,
72,
62,
75,
61,
52,
30,
35,
40,
29,
26,
30,
26,
11,
6,
13,
5,
1,
2,
3,
2,
2,
3,
4,
4,
1,
1,
0,
0,
0,
2,
2,
1,
1,
1,
1,
1,
2,
2,
1,
2,
1,
2,
0,
0,
0,
1,
0,
0,
0,
0,
0,
1,
1,
1,
0,
0,
0,
0,
1,
0,
0,
0,
0,
0,
0,
0,
1,
0,
0,
0,
0,
0,
0,
0,
0,
0,
0,
0,
0,
0,
0,
0,
0,
0,
1,
0,
0,
0,
0,
0,
0,
0,
0,
0,
0,
0,
0,
0,
0,
0,
0,
0,
0,
0,
0,
0,
0,
0,
0,
0,
0,
0,
0,
0,
0,
0,
0,
0,
0,
0,
0,
0,
0,
0,
0,
0,
0,
0,
0,
0,
0,
0,
0,
0,
0,
0,
0,
0,
0,
0,
0,
0,
0,
0,
0,
0,
0,
0,
0,
0,
0,
0,
0,
0,
0,
0,
0,
0,
0,
0,
0,
0,
0,
0,
0,
0,
0,
#ENDOFDATA   :