File: N132962/Quantification/20 keV/MMM1/SPI MM1 Albite[0][4].msa
#FORMAT      : EMSA/MAS Spectral Data File
#VERSION     : 1.0
#TITLE       : SPI MM1 Albite[0][all]
#DATE        : 11-MAR-2025
#TIME        : 12:48
#OWNER       : Unknown
#NPOINTS     : 4096
#NCOLUMNS    : 1
#XUNITS      : eV
#YUNITS      : counts
#DATATYPE    : Y
#XPERCHAN    : 9.99778
#OFFSET      : 1.69135
#BEAMKV      : 20
#SIGNALTYPE  : EDS
#ELEVANGLE   : 35
#AZIMANGLE   : 0
#LIVETIME    : 239.85
#REALTIME    : 255.9752
#PROBECUR    : 1.02699
#TAUWIND     : 0
#TDEADLYR    : 0
#TACTLYR     : 0.045
#TALWIND     : 0.025
#CHOFFSET    : 0.0
#XLABEL      : Energy (eV)
#YLABEL      : Counts
#XPOSITION   : 3.45778
#YPOSITION   : -7.05357
#ZPOSITION   : 30.9284
#EDSDET      : SD
##SPECIMEN   : SPI MM1 Albite[0][all]
##D2STDCMP   : Albite,(O:48.8112),(Na:8.7674),(Al:10.2897),(Si:32.1316)
##DET_HASH   : 12273538-fd48-a23f-0a19-f1e6fa85caef
##CALIB_HASH : 6abaa72c-aa41-8738-0be9-f592914732f3
##WORKING    : 15.0 mm
##DET_NAME   : EDAX All
##DET_MODE   : MediumLE
#SPECTRUM    :
31,
191,
7636,
6543,
67632,
2195,
2767,
14177,
5667,
3709,
9645,
33357,
73708,
34694,
2138,
2091,
2787,
2178,
2201,
2031,
2201,
2043,
2058,
2257,
2278,
2159,
1980,
1896,
1650,
1578,
1528,
1522,
1402,
1374,
1354,
1270,
1251,
1179,
1145,
1185,
1065,
1049,
972,
1005,
970,
896,
935,
836,
815,
742,
737,
716,
712,
736,
663,
660,
617,
602,
593,
593,
550,
511,
529,
529,
451,
454,
480,
398,
428,
384,
409,
361,
382,
330,
336,
346,
304,
307,
258,
254,
249,
234,
255,
216,
214,
200,
198,
211,
200,
189,
164,
168,
152,
159,
160,
141,
117,
110,
130,
106,
103,
111,
110,
92,
81,
93,
74,
78,
65,
67,
67,
53,
66,
48,
36,
44,
46,
33,
29,
36,
17,
31,
22,
15,
12,
20,
19,
18,
14,
13,
14,
13,
13,
12,
3,
4,
9,
6,
10,
4,
3,
5,
1,
0,
0,
0,
0,
0,
0,
0,
0,
0,
0,
0,
0,
0,
0,
0,
0,
0,
0,
0,
0,
0,
0,
0,
0,
0,
0,
0,
0,
0,
0,
0,
0,
0,
0,
0,
0,
0,
0,
0,
0,
0,
0,
0,
0,
0,
0,
0,
0,
0,
0,
0,
0,
0,
0,
0,
0,
0,
0,
0,
0,
0,
0,
0,
0,
0,
0,
0,
0,
0,
0,
0,
0,
0,
0,
0,
0,
0,
0,
0,
0,
0,
0,
0,
0,
0,
0,
0,
0,
0,
0,
0,
0,
0,
0,
0,
0,
0,
0,
0,
0,
0,
0,
0,
0,
0,
0,
0,
0,
0,
0,
0,
0,
0,
0,
0,
0,
0,
0,
0,
0,
0,
0,
0,
0,
0,
0,
0,
0,
0,
0,
0,
0,
0,
0,
0,
0,
0,
0,
0,
0,
0,
0,
0,
0,
0,
0,
0,
0,
0,
0,
0,
#ENDOFDATA   :