File: N132962/Quantification/20 keV/MMM1/SPI MM1 Barite[6][4].msa
#FORMAT      : EMSA/MAS Spectral Data File
#VERSION     : 1.0
#TITLE       : SPI MM1 Barite[6][all]
#DATE        : 11-MAR-2025
#TIME        : 13:32
#OWNER       : Unknown
#NPOINTS     : 4096
#NCOLUMNS    : 1
#XUNITS      : eV
#YUNITS      : counts
#DATATYPE    : Y
#XPERCHAN    : 9.99778
#OFFSET      : 1.69135
#BEAMKV      : 20
#SIGNALTYPE  : EDS
#ELEVANGLE   : 35
#AZIMANGLE   : 0
#LIVETIME    : 239.881
#REALTIME    : 258.92
#PROBECUR    : 1.02853
#TAUWIND     : 0
#TDEADLYR    : 0
#TACTLYR     : 0.045
#TALWIND     : 0.025
#CHOFFSET    : 0.0
#XLABEL      : Energy (eV)
#YLABEL      : Counts
#XPOSITION   : -0.3537
#YPOSITION   : -5.01357
#ZPOSITION   : 30.9284
#EDSDET      : SD
##SPECIMEN   : SPI MM1 Barite[6][all]
##DET_HASH   : 12273538-fd48-a23f-0a19-f1e6fa85caef
##CALIB_HASH : 6abaa72c-aa41-8738-0be9-f592914732f3
##WORKING    : 15.0 mm
##DET_NAME   : EDAX All
##DET_MODE   : MediumLE
#SPECTRUM    :
18,
1054,
13788,
8049,
55541,
5944,
5326,
5955,
4345,
4391,
4725,
5271,
5670,
6364,
5460,
5639,
27855,
24441,
7163,
5077,
5126,
4887,
5010,
4756,
4555,
4455,
4320,
4364,
6584,
4663,
4163,
9447,
82851,
5104,
18843,
26248,
6152,
16010,
3317,
5143,
5159,
3984,
3405,
2638,
2345,
2469,
2502,
2179,
2189,
2269,
2089,
2040,
2035,
2150,
1893,
1862,
1827,
1784,
1736,
1664,
1665,
1573,
1589,
1481,
1533,
1416,
1457,
1334,
1350,
1300,
1260,
1271,
1170,
1150,
1100,
1077,
1013,
1015,
960,
1004,
924,
911,
903,
845,
791,
756,
750,
705,
651,
645,
672,
665,
607,
597,
562,
495,
490,
472,
470,
432,
447,
410,
362,
349,
335,
357,
326,
327,
276,
282,
271,
233,
226,
243,
206,
200,
180,
154,
144,
153,
132,
152,
120,
112,
106,
91,
75,
76,
81,
88,
61,
68,
55,
37,
37,
39,
22,
24,
18,
16,
6,
5,
5,
1,
3,
0,
1,
0,
4,
2,
4,
0,
0,
1,
1,
2,
1,
1,
2,
1,
3,
1,
0,
0,
1,
1,
0,
0,
0,
1,
0,
0,
0,
0,
0,
0,
0,
0,
0,
0,
0,
0,
0,
0,
0,
0,
0,
0,
0,
0,
0,
0,
0,
0,
0,
0,
0,
0,
0,
0,
0,
0,
0,
0,
0,
0,
0,
0,
0,
0,
0,
0,
0,
0,
0,
0,
0,
0,
0,
0,
0,
0,
0,
0,
0,
0,
0,
0,
0,
0,
0,
0,
0,
0,
0,
0,
0,
0,
0,
0,
0,
0,
0,
0,
0,
0,
0,
0,
0,
0,
0,
0,
0,
0,
0,
0,
0,
0,
0,
0,
0,
0,
0,
0,
0,
0,
0,
0,
0,
0,
0,
0,
0,
0,
0,
0,
0,
0,
0,
0,
0,
0,
0,
0,
0,
0,
0,
0,
0,
0,
0,
0,
0,
0,
#ENDOFDATA   :