File: N132962/Quantification/20 keV/MMM1/SPI MM1 Benitoite[4][4].msa
#FORMAT      : EMSA/MAS Spectral Data File
#VERSION     : 1.0
#TITLE       : SPI MM1 Benitoite[4][all]
#DATE        : 11-MAR-2025
#TIME        : 13:20
#OWNER       : Unknown
#NPOINTS     : 4096
#NCOLUMNS    : 1
#XUNITS      : eV
#YUNITS      : counts
#DATATYPE    : Y
#XPERCHAN    : 9.99778
#OFFSET      : 1.69135
#BEAMKV      : 20
#SIGNALTYPE  : EDS
#ELEVANGLE   : 35
#AZIMANGLE   : 0
#LIVETIME    : 239.899
#REALTIME    : 256.805
#PROBECUR    : 1.02853
#TAUWIND     : 0
#TDEADLYR    : 0
#TACTLYR     : 0.045
#TALWIND     : 0.025
#CHOFFSET    : 0.0
#XLABEL      : Energy (eV)
#YLABEL      : Counts
#XPOSITION   : -3.32112
#YPOSITION   : -4.82942
#ZPOSITION   : 30.9284
#EDSDET      : SD
##SPECIMEN   : SPI MM1 Benitoite[4][all]
##D2STDCMP   : Benitoite,(O:34.828),(Si:20.3791),(Ti:11.5776),(Ba:33.2153)
##DET_HASH   : 12273538-fd48-a23f-0a19-f1e6fa85caef
##CALIB_HASH : 6abaa72c-aa41-8738-0be9-f592914732f3
##WORKING    : 15.0 mm
##DET_NAME   : EDAX All
##DET_MODE   : MediumLE
#SPECTRUM    :
28,
322,
11605,
12020,
44717,
3772,
3976,
4782,
3783,
4177,
4604,
5523,
46504,
23217,
3909,
4052,
4322,
4114,
4076,
4325,
4202,
3978,
3953,
3848,
3721,
3742,
3319,
3332,
4541,
3468,
3413,
6387,
80518,
7158,
11190,
19338,
4635,
9094,
2409,
3226,
3420,
2674,
2406,
2022,
1818,
1889,
1949,
1662,
1578,
1562,
1517,
1536,
1488,
1451,
1485,
1339,
1357,
1253,
1266,
1211,
1186,
1148,
1148,
1101,
1134,
1045,
1012,
995,
955,
940,
875,
852,
804,
793,
784,
760,
716,
702,
715,
689,
639,
581,
593,
565,
551,
544,
508,
516,
510,
436,
450,
422,
411,
379,
373,
358,
350,
290,
297,
285,
243,
289,
272,
222,
251,
205,
197,
174,
181,
169,
180,
152,
145,
147,
134,
122,
132,
104,
101,
93,
87,
81,
83,
58,
82,
70,
50,
60,
51,
43,
47,
34,
32,
25,
24,
19,
21,
15,
15,
19,
12,
9,
3,
2,
1,
1,
1,
1,
1,
2,
0,
2,
0,
0,
2,
0,
0,
2,
0,
0,
0,
0,
0,
0,
0,
0,
2,
0,
0,
0,
0,
0,
0,
0,
0,
1,
0,
0,
0,
0,
1,
0,
0,
0,
0,
0,
0,
0,
0,
0,
0,
0,
0,
0,
0,
0,
0,
0,
0,
0,
0,
0,
0,
0,
0,
0,
0,
0,
0,
0,
0,
0,
0,
0,
0,
0,
0,
0,
0,
0,
0,
0,
0,
0,
0,
0,
0,
0,
0,
0,
0,
0,
0,
0,
0,
0,
0,
0,
0,
0,
0,
0,
0,
0,
0,
0,
0,
0,
0,
0,
0,
0,
0,
0,
0,
0,
0,
0,
0,
0,
0,
0,
0,
0,
0,
0,
0,
0,
0,
0,
0,
0,
0,
0,
0,
0,
0,
0,
0,
0,
0,
0,
0,
0,
0,
0,
0,
0,
0,
0,
0,
0,
0,
0,
#ENDOFDATA   :