File: N132962/Quantification/20 keV/MMM1/SPI MM1 Crocoite[1][4].msa
#FORMAT      : EMSA/MAS Spectral Data File
#VERSION     : 1.0
#TITLE       : SPI MM1dup Crocoite[1][all]
#DATE        : 12-MAR-2025
#TIME        : 13:50
#OWNER       : Unknown
#NPOINTS     : 4096
#NCOLUMNS    : 1
#XUNITS      : eV
#YUNITS      : counts
#DATATYPE    : Y
#XPERCHAN    : 9.99778
#OFFSET      : 1.69135
#BEAMKV      : 20
#SIGNALTYPE  : EDS
#ELEVANGLE   : 35
#AZIMANGLE   : 0
#LIVETIME    : 239.822
#REALTIME    : 261.988
#PROBECUR    : 1.02627
#TAUWIND     : 0
#TDEADLYR    : 0
#TACTLYR     : 0.045
#TALWIND     : 0.025
#CHOFFSET    : 0.0
#XLABEL      : Energy (eV)
#YLABEL      : Counts
#XPOSITION   : -1.17007
#YPOSITION   : -0.60679
#ZPOSITION   : 31.03608
#EDSDET      : SD
##SPECIMEN   : SPI MM1dup Crocoite[1][all]
##DET_HASH   : 12273538-fd48-a23f-0a19-f1e6fa85caef
##CALIB_HASH : 6abaa72c-aa41-8738-0be9-f592914732f3
##WORKING    : 15.0 mm
##DET_NAME   : EDAX All
##DET_MODE   : MediumLE
#SPECTRUM    :
24,
784,
17689,
6502,
29970,
6385,
5350,
5935,
6444,
7263,
7946,
8432,
9132,
18138,
8532,
8957,
17431,
138980,
23394,
11478,
4939,
5530,
6721,
5021,
4716,
4898,
4746,
4774,
4627,
4511,
4501,
4475,
4564,
4456,
4520,
4392,
4090,
4294,
14529,
32434,
4026,
3902,
6915,
5918,
3428,
3545,
3705,
3313,
3213,
2976,
3104,
3032,
2990,
2972,
2880,
2788,
2836,
2623,
2513,
2449,
2418,
2340,
2293,
2245,
2217,
2395,
2425,
2073,
2037,
1980,
1883,
1816,
1825,
1780,
2642,
10021,
5468,
1675,
1505,
1474,
1437,
1410,
1300,
1255,
1221,
1157,
1185,
1267,
1256,
1727,
4572,
1919,
1088,
1121,
892,
798,
780,
699,
667,
675,
644,
601,
590,
578,
587,
819,
688,
446,
530,
449,
398,
405,
379,
346,
298,
297,
278,
298,
272,
217,
215,
224,
233,
179,
212,
154,
151,
128,
141,
120,
105,
83,
106,
74,
67,
49,
60,
37,
35,
35,
29,
15,
8,
5,
4,
6,
4,
3,
1,
2,
2,
6,
2,
1,
1,
2,
0,
2,
1,
1,
2,
3,
3,
2,
1,
1,
2,
1,
1,
2,
0,
0,
2,
0,
3,
2,
1,
0,
2,
0,
0,
0,
1,
0,
0,
1,
1,
1,
0,
0,
1,
0,
0,
0,
0,
0,
0,
1,
1,
0,
0,
2,
0,
0,
0,
1,
0,
0,
0,
2,
0,
0,
1,
0,
0,
0,
0,
0,
0,
0,
0,
0,
0,
0,
0,
0,
0,
0,
0,
0,
0,
0,
0,
0,
0,
0,
0,
0,
0,
0,
0,
0,
0,
0,
0,
0,
0,
0,
0,
0,
0,
0,
0,
0,
0,
0,
0,
0,
0,
0,
0,
0,
0,
0,
0,
0,
0,
0,
0,
0,
0,
0,
0,
0,
0,
0,
0,
0,
0,
0,
0,
0,
0,
0,
0,
0,
0,
0,
0,
0,
0,
0,
0,
0,
#ENDOFDATA   :