File: N132962/Quantification/20 keV/MMM1/SPI MM1 Andradite[6][4].msa
#FORMAT      : EMSA/MAS Spectral Data File
#VERSION     : 1.0
#TITLE       : SPI MM1 Andradite[6][all]
#DATE        : 11-MAR-2025
#TIME        : 13:13
#OWNER       : Unknown
#NPOINTS     : 4096
#NCOLUMNS    : 1
#XUNITS      : eV
#YUNITS      : counts
#DATATYPE    : Y
#XPERCHAN    : 9.99778
#OFFSET      : 1.69135
#BEAMKV      : 20
#SIGNALTYPE  : EDS
#ELEVANGLE   : 35
#AZIMANGLE   : 0
#LIVETIME    : 239.886
#REALTIME    : 255.404
#PROBECUR    : 1.02699
#TAUWIND     : 0
#TDEADLYR    : 0
#TACTLYR     : 0.045
#TALWIND     : 0.025
#CHOFFSET    : 0.0
#XLABEL      : Energy (eV)
#YLABEL      : Counts
#XPOSITION   : -2.19067
#YPOSITION   : -7.9886
#ZPOSITION   : 30.9284
#EDSDET      : SD
##SPECIMEN   : SPI MM1 Andradite[6][all]
##D2STDCMP   : Andradite,(O:37.7805),(Si:16.5802),(Ca:23.6603),(Fe:21.979),3.86
##DET_HASH   : 12273538-fd48-a23f-0a19-f1e6fa85caef
##CALIB_HASH : 6abaa72c-aa41-8738-0be9-f592914732f3
##WORKING    : 15.0 mm
##DET_NAME   : EDAX All
##DET_MODE   : MediumLE
#SPECTRUM    :
25,
215,
12738,
3967,
31365,
13972,
2551,
2758,
3407,
4088,
5526,
11056,
42832,
21277,
4543,
3452,
3695,
3387,
3220,
3332,
3237,
3081,
3035,
3080,
2803,
3400,
61929,
21191,
4944,
10951,
2109,
1958,
1975,
1931,
1864,
1683,
1781,
1666,
1679,
1797,
1526,
1494,
2048,
1486,
1441,
9307,
26276,
1541,
1255,
1290,
4122,
2558,
976,
1076,
999,
901,
853,
830,
844,
819,
771,
718,
745,
694,
667,
679,
639,
617,
621,
565,
605,
548,
591,
538,
497,
488,
473,
459,
442,
410,
401,
361,
334,
355,
367,
348,
323,
286,
309,
298,
291,
257,
251,
227,
235,
217,
215,
203,
162,
175,
183,
137,
159,
131,
144,
119,
126,
107,
99,
113,
105,
77,
71,
75,
64,
66,
70,
51,
69,
46,
64,
46,
45,
45,
32,
32,
37,
38,
26,
26,
17,
21,
15,
14,
14,
7,
11,
7,
7,
6,
3,
2,
1,
0,
1,
0,
0,
0,
0,
1,
0,
1,
0,
0,
1,
0,
0,
0,
1,
0,
0,
0,
0,
0,
0,
0,
0,
0,
1,
0,
0,
0,
0,
0,
0,
0,
0,
1,
0,
0,
0,
0,
0,
0,
0,
0,
0,
0,
0,
0,
0,
0,
0,
0,
0,
0,
0,
0,
0,
0,
0,
0,
0,
0,
0,
0,
0,
0,
0,
0,
0,
0,
0,
0,
0,
0,
0,
0,
0,
0,
0,
0,
0,
0,
0,
0,
0,
0,
0,
0,
0,
0,
0,
0,
0,
0,
0,
0,
0,
0,
0,
0,
0,
0,
0,
0,
0,
0,
0,
0,
0,
0,
0,
0,
0,
0,
0,
0,
0,
0,
0,
0,
0,
0,
0,
0,
0,
0,
0,
0,
0,
0,
0,
0,
0,
0,
0,
0,
0,
0,
0,
0,
0,
0,
0,
0,
0,
0,
0,
0,
0,
0,
0,
0,
#ENDOFDATA   :