File: N132962/Quantification/20 keV/MMM1/SPI MM1 Arsenopyrite[5][4].msa
#FORMAT      : EMSA/MAS Spectral Data File
#VERSION     : 1.0
#TITLE       : SPI MM1 Arsenopyrite[5][all]
#DATE        : 11-MAR-2025
#TIME        : 13:40
#OWNER       : Unknown
#NPOINTS     : 4096
#NCOLUMNS    : 1
#XUNITS      : eV
#YUNITS      : counts
#DATATYPE    : Y
#XPERCHAN    : 9.99778
#OFFSET      : 1.69135
#BEAMKV      : 20
#SIGNALTYPE  : EDS
#ELEVANGLE   : 35
#AZIMANGLE   : 0
#LIVETIME    : 239.836
#REALTIME    : 260.78
#PROBECUR    : 1.02853
#TAUWIND     : 0
#TDEADLYR    : 0
#TACTLYR     : 0.045
#TALWIND     : 0.025
#CHOFFSET    : 0.0
#XLABEL      : Energy (eV)
#YLABEL      : Counts
#XPOSITION   : 2.16876
#YPOSITION   : -5.10671
#ZPOSITION   : 30.9284
#EDSDET      : SD
##SPECIMEN   : SPI MM1 Arsenopyrite[5][all]
##D2STDCMP   : Arsenopyrite,(S:19.6897),(Fe:34.2972),(As:46.0131),6.0
##DET_HASH   : 12273538-fd48-a23f-0a19-f1e6fa85caef
##CALIB_HASH : 6abaa72c-aa41-8738-0be9-f592914732f3
##WORKING    : 15.0 mm
##DET_NAME   : EDAX All
##DET_MODE   : MediumLE
#SPECTRUM    :
27,
361,
11686,
3357,
11206,
58148,
4882,
5470,
14658,
145461,
10494,
4260,
4544,
5067,
4691,
4948,
33540,
27155,
7626,
4378,
4153,
4190,
4272,
4209,
4136,
4069,
4151,
3895,
3859,
3756,
3573,
3598,
3429,
3550,
3318,
3162,
3084,
3029,
2942,
3005,
2870,
2752,
2581,
2681,
2648,
19998,
57562,
2780,
2276,
2427,
8489,
5318,
1875,
1898,
1791,
1858,
1615,
1571,
1603,
1568,
1501,
1439,
1407,
1350,
1313,
1268,
1264,
1250,
1210,
1149,
1095,
1095,
1055,
1068,
2528,
17332,
5878,
988,
872,
829,
865,
821,
807,
1808,
2776,
853,
632,
621,
552,
591,
541,
553,
519,
436,
449,
420,
390,
403,
398,
355,
345,
330,
305,
290,
287,
267,
249,
247,
244,
220,
235,
199,
205,
190,
182,
138,
175,
126,
138,
106,
117,
139,
106,
83,
87,
95,
81,
69,
75,
59,
47,
45,
60,
29,
31,
33,
27,
11,
20,
13,
14,
7,
2,
5,
2,
3,
0,
3,
1,
3,
3,
2,
2,
1,
3,
3,
2,
2,
0,
2,
0,
0,
1,
0,
2,
1,
1,
1,
0,
0,
0,
0,
0,
0,
0,
0,
0,
0,
0,
1,
0,
0,
0,
1,
0,
0,
0,
0,
1,
0,
0,
0,
0,
0,
0,
0,
0,
0,
0,
0,
0,
0,
0,
0,
0,
0,
0,
0,
0,
0,
0,
0,
1,
0,
0,
0,
0,
0,
0,
0,
0,
0,
0,
0,
0,
0,
0,
0,
0,
0,
0,
0,
0,
0,
0,
0,
0,
0,
0,
0,
0,
0,
0,
0,
0,
0,
0,
0,
0,
0,
0,
0,
0,
0,
0,
0,
0,
1,
0,
0,
0,
0,
0,
0,
0,
0,
0,
0,
0,
0,
0,
0,
0,
0,
0,
0,
0,
0,
0,
0,
0,
0,
0,
0,
0,
0,
0,
0,
0,
0,
0,
0,
0,
0,
#ENDOFDATA   :