File: N132962/Quantification/20 keV/MMM1/SPI MM1 Chalcopyrite[6][4].msa
#FORMAT      : EMSA/MAS Spectral Data File
#VERSION     : 1.0
#TITLE       : SPI MM1 Chalcopyrite[6][all]
#DATE        : 11-MAR-2025
#TIME        : 14:33
#OWNER       : Unknown
#NPOINTS     : 4096
#NCOLUMNS    : 1
#XUNITS      : eV
#YUNITS      : counts
#DATATYPE    : Y
#XPERCHAN    : 9.99778
#OFFSET      : 1.69135
#BEAMKV      : 20
#SIGNALTYPE  : EDS
#ELEVANGLE   : 35
#AZIMANGLE   : 0
#LIVETIME    : 239.835
#REALTIME    : 260.399
#PROBECUR    : 1.02809
#TAUWIND     : 0
#TDEADLYR    : 0
#TACTLYR     : 0.045
#TALWIND     : 0.025
#CHOFFSET    : 0.0
#XLABEL      : Energy (eV)
#YLABEL      : Counts
#XPOSITION   : -4.82437
#YPOSITION   : -3.88173
#ZPOSITION   : 30.9284
#EDSDET      : SD
##SPECIMEN   : SPI MM1 Chalcopyrite[6][all]
##D2STDCMP   : Chalcopyrite,(S:34.9407),(Fe:30.4314),(Cu:34.6279),4.2
##DET_HASH   : 12273538-fd48-a23f-0a19-f1e6fa85caef
##CALIB_HASH : 6abaa72c-aa41-8738-0be9-f592914732f3
##WORKING    : 15.0 mm
##DET_NAME   : EDAX All
##DET_MODE   : MediumLE
#SPECTRUM    :
27,
475,
10865,
3219,
13403,
42358,
11634,
28591,
3368,
4099,
4679,
4924,
5586,
5833,
5419,
5706,
66729,
51763,
10927,
3718,
3853,
3782,
3755,
3928,
3745,
3438,
3501,
3431,
3300,
3262,
3180,
3125,
3178,
3426,
2970,
2804,
2654,
2611,
2633,
2560,
2374,
2352,
2303,
2199,
2273,
17550,
50556,
2538,
1907,
2198,
7510,
4633,
1660,
1729,
1505,
1480,
1934,
24880,
16851,
1549,
1321,
1242,
1425,
3649,
4292,
1112,
1066,
970,
1012,
956,
911,
913,
851,
844,
859,
754,
763,
733,
705,
692,
681,
621,
644,
619,
597,
539,
524,
513,
474,
488,
466,
473,
442,
413,
399,
362,
360,
330,
338,
280,
286,
284,
242,
263,
258,
223,
226,
201,
185,
184,
199,
170,
138,
160,
136,
137,
114,
108,
107,
110,
106,
76,
104,
63,
71,
62,
66,
61,
53,
53,
41,
31,
41,
28,
20,
25,
19,
16,
12,
10,
7,
9,
2,
2,
1,
3,
1,
1,
4,
1,
0,
0,
1,
1,
1,
0,
0,
0,
2,
3,
1,
0,
0,
0,
0,
0,
0,
0,
0,
1,
0,
0,
0,
0,
0,
0,
0,
0,
0,
1,
0,
0,
0,
0,
0,
0,
0,
0,
1,
1,
0,
0,
0,
0,
0,
0,
0,
0,
0,
0,
0,
0,
0,
0,
0,
0,
0,
0,
0,
0,
0,
0,
0,
0,
0,
0,
0,
0,
0,
0,
1,
0,
0,
0,
0,
0,
0,
0,
0,
0,
0,
0,
0,
0,
0,
0,
0,
0,
0,
0,
0,
0,
0,
0,
0,
0,
0,
0,
0,
0,
0,
0,
0,
0,
0,
0,
0,
0,
0,
0,
0,
0,
0,
0,
0,
0,
0,
0,
0,
0,
0,
0,
0,
0,
0,
0,
0,
0,
0,
0,
0,
0,
0,
0,
0,
0,
0,
0,
0,
0,
0,
0,
0,
0,
#ENDOFDATA   :