File: N132962/Quantification/20 keV/MMM1/SPI MM1 Jadeite[6][4].msa
#FORMAT      : EMSA/MAS Spectral Data File
#VERSION     : 1.0
#TITLE       : SPI MM1dup Jadeite[6][all]
#DATE        : 12-MAR-2025
#TIME        : 16:36
#OWNER       : Unknown
#NPOINTS     : 4096
#NCOLUMNS    : 1
#XUNITS      : eV
#YUNITS      : counts
#DATATYPE    : Y
#XPERCHAN    : 9.99778
#OFFSET      : 1.69135
#BEAMKV      : 20
#SIGNALTYPE  : EDS
#ELEVANGLE   : 35
#AZIMANGLE   : 0
#LIVETIME    : 239.809
#REALTIME    : 255.589
#PROBECUR    : 1.02709
#TAUWIND     : 0
#TDEADLYR    : 0
#TACTLYR     : 0.045
#TALWIND     : 0.025
#CHOFFSET    : 0.0
#XLABEL      : Energy (eV)
#YLABEL      : Counts
#XPOSITION   : 0.98979
#YPOSITION   : 4.34036
#ZPOSITION   : 31.03608
#EDSDET      : SD
##SPECIMEN   : SPI MM1dup Jadeite[6][all]
##D2STDCMP   : Jadeite,(O:47.4904),(Na:11.3733),(Al:13.348),(Si:27.7883),5.0
##DET_HASH   : 12273538-fd48-a23f-0a19-f1e6fa85caef
##CALIB_HASH : 6abaa72c-aa41-8738-0be9-f592914732f3
##WORKING    : 15.0 mm
##DET_NAME   : EDAX All
##DET_MODE   : MediumLE
#SPECTRUM    :
20,
180,
7659,
6405,
66737,
2039,
2742,
17846,
6324,
3777,
10341,
39886,
60716,
28510,
2180,
2132,
2683,
2106,
2241,
2104,
2346,
2160,
2020,
2194,
1840,
1998,
1824,
1758,
1586,
1558,
1486,
1507,
1411,
1366,
1255,
1230,
1215,
1166,
1123,
1109,
1054,
1056,
1012,
988,
938,
914,
974,
828,
841,
757,
743,
729,
645,
666,
667,
636,
588,
532,
569,
602,
581,
523,
473,
436,
477,
454,
466,
468,
417,
389,
389,
375,
356,
339,
341,
321,
315,
290,
287,
261,
266,
245,
232,
229,
206,
230,
199,
185,
155,
195,
146,
152,
138,
150,
104,
136,
130,
113,
114,
95,
103,
90,
91,
89,
100,
77,
70,
55,
80,
83,
33,
62,
51,
59,
45,
38,
50,
41,
29,
41,
24,
29,
18,
15,
22,
22,
15,
9,
16,
10,
8,
7,
5,
9,
6,
6,
4,
6,
3,
1,
2,
1,
0,
0,
0,
0,
0,
0,
0,
0,
0,
0,
0,
1,
0,
0,
0,
0,
0,
0,
0,
0,
0,
0,
0,
0,
0,
0,
0,
0,
0,
0,
0,
0,
0,
0,
1,
0,
0,
0,
0,
0,
0,
0,
0,
0,
0,
0,
0,
0,
0,
0,
0,
0,
0,
0,
0,
0,
0,
0,
0,
0,
0,
0,
0,
0,
0,
0,
0,
0,
0,
0,
0,
0,
0,
0,
0,
0,
0,
0,
0,
0,
0,
0,
0,
0,
0,
0,
0,
0,
0,
0,
0,
0,
0,
0,
0,
0,
0,
0,
0,
0,
0,
0,
0,
0,
0,
0,
0,
0,
0,
0,
0,
0,
0,
0,
0,
0,
0,
0,
0,
0,
0,
0,
0,
0,
0,
0,
0,
0,
0,
0,
0,
0,
0,
0,
0,
0,
0,
0,
0,
0,
0,
0,
0,
0,
0,
0,
0,
0,
0,
0,
0,
0,
#ENDOFDATA   :