File: N132962/Quantification/20 keV/MMM1/SPI MM1 Hematite[0][4].msa
#FORMAT      : EMSA/MAS Spectral Data File
#VERSION     : 1.0
#TITLE       : SPI MM1dup Hematite[0][all]
#DATE        : 12-MAR-2025
#TIME        : 16:46
#OWNER       : Unknown
#NPOINTS     : 4096
#NCOLUMNS    : 1
#XUNITS      : eV
#YUNITS      : counts
#DATATYPE    : Y
#XPERCHAN    : 9.99778
#OFFSET      : 1.69135
#BEAMKV      : 20
#SIGNALTYPE  : EDS
#ELEVANGLE   : 35
#AZIMANGLE   : 0
#LIVETIME    : 239.833
#REALTIME    : 256.681
#PROBECUR    : 1.026781
#TAUWIND     : 0
#TDEADLYR    : 0
#TACTLYR     : 0.045
#TALWIND     : 0.025
#CHOFFSET    : 0.0
#XLABEL      : Energy (eV)
#YLABEL      : Counts
#XPOSITION   : 3.58633
#YPOSITION   : 4.19776
#ZPOSITION   : 31.03609
#EDSDET      : SD
##SPECIMEN   : SPI MM1dup Hematite[0][all]
##D2STDCMP   : Hematite,(O:30.0574),(Fe:69.9426),5.0
##DET_HASH   : 12273538-fd48-a23f-0a19-f1e6fa85caef
##CALIB_HASH : 6abaa72c-aa41-8738-0be9-f592914732f3
##WORKING    : 15.0 mm
##DET_NAME   : EDAX All
##DET_MODE   : MediumLE
#SPECTRUM    :
25,
265,
11802,
9846,
70395,
54132,
2298,
2423,
2767,
3368,
3728,
4173,
4725,
4795,
4277,
4386,
4301,
4214,
4210,
4189,
4076,
3907,
3887,
3788,
3644,
3447,
3260,
3325,
3141,
2983,
2849,
2917,
2745,
3198,
2628,
2527,
2356,
2413,
2341,
2244,
2173,
2116,
1969,
1977,
2326,
34439,
105924,
2836,
1784,
2348,
13807,
7876,
1203,
1233,
1218,
1127,
1149,
1053,
1010,
1063,
1058,
953,
956,
963,
932,
888,
841,
836,
828,
767,
795,
709,
705,
740,
639,
656,
601,
573,
614,
586,
564,
537,
537,
521,
463,
479,
480,
425,
430,
393,
372,
415,
397,
333,
332,
335,
320,
281,
258,
226,
235,
251,
211,
183,
188,
189,
170,
178,
146,
130,
131,
134,
143,
118,
104,
116,
97,
87,
74,
75,
74,
57,
58,
62,
67,
47,
60,
41,
33,
29,
35,
28,
19,
23,
21,
11,
14,
17,
16,
7,
6,
5,
2,
1,
1,
0,
0,
0,
0,
2,
1,
2,
1,
1,
0,
1,
1,
0,
2,
0,
1,
0,
2,
0,
0,
0,
0,
0,
1,
0,
0,
0,
0,
0,
0,
0,
0,
0,
0,
0,
0,
0,
0,
0,
0,
0,
0,
0,
0,
0,
0,
0,
0,
0,
0,
0,
0,
0,
0,
0,
0,
0,
0,
0,
0,
0,
0,
0,
0,
0,
0,
0,
0,
0,
0,
0,
0,
0,
0,
0,
0,
0,
0,
0,
0,
0,
0,
0,
0,
0,
0,
0,
0,
0,
0,
0,
0,
0,
0,
0,
0,
0,
0,
0,
0,
0,
0,
0,
0,
0,
0,
0,
0,
0,
0,
0,
0,
0,
0,
0,
0,
0,
0,
0,
0,
0,
0,
0,
0,
0,
0,
0,
0,
0,
0,
0,
0,
0,
0,
0,
0,
0,
0,
0,
0,
0,
0,
0,
0,
0,
0,
0,
0,
0,
#ENDOFDATA   :