File: N132962/Quantification/20 keV/MMM1/SPI MM1 Dolomite[4][4].msa
#FORMAT      : EMSA/MAS Spectral Data File
#VERSION     : 1.0
#TITLE       : SPI MM1dup Dolomite[4][all]
#DATE        : 12-MAR-2025
#TIME        : 15:49
#OWNER       : Unknown
#NPOINTS     : 4096
#NCOLUMNS    : 1
#XUNITS      : eV
#YUNITS      : counts
#DATATYPE    : Y
#XPERCHAN    : 9.99778
#OFFSET      : 1.69135
#BEAMKV      : 20
#SIGNALTYPE  : EDS
#ELEVANGLE   : 35
#AZIMANGLE   : 0
#LIVETIME    : 239.783
#REALTIME    : 250.724
#PROBECUR    : 1.02695
#TAUWIND     : 0
#TDEADLYR    : 0
#TACTLYR     : 0.045
#TALWIND     : 0.025
#CHOFFSET    : 0.0
#XLABEL      : Energy (eV)
#YLABEL      : Counts
#XPOSITION   : -0.06651
#YPOSITION   : 1.94004
#ZPOSITION   : 31.03608
#EDSDET      : SD
##SPECIMEN   : SPI MM1dup Dolomite[4][all]
##DET_HASH   : 12273538-fd48-a23f-0a19-f1e6fa85caef
##CALIB_HASH : 6abaa72c-aa41-8738-0be9-f592914732f3
##WORKING    : 15.0 mm
##DET_NAME   : EDAX All
##DET_MODE   : MediumLE
#SPECTRUM    :
22,
207,
27344,
3657,
35434,
1794,
2048,
2430,
3580,
86154,
2993,
3292,
3336,
3524,
3881,
2829,
2939,
2758,
2644,
2573,
2511,
2490,
2326,
2257,
2120,
2594,
56229,
19411,
3926,
9640,
1543,
1304,
1337,
1304,
1247,
1250,
1178,
1120,
1092,
1006,
1001,
1036,
999,
930,
907,
951,
1115,
766,
793,
785,
814,
731,
735,
708,
656,
592,
567,
573,
549,
537,
549,
506,
502,
481,
421,
447,
431,
482,
412,
370,
383,
344,
317,
345,
315,
313,
282,
283,
259,
289,
290,
207,
203,
219,
213,
171,
194,
185,
177,
162,
161,
162,
125,
148,
116,
117,
127,
116,
114,
94,
104,
98,
90,
77,
86,
72,
67,
57,
62,
59,
57,
57,
46,
46,
37,
34,
44,
31,
26,
23,
34,
34,
26,
22,
31,
16,
15,
18,
7,
10,
13,
4,
8,
8,
5,
7,
5,
4,
3,
6,
1,
2,
2,
1,
0,
0,
0,
0,
1,
0,
0,
0,
0,
0,
0,
0,
0,
0,
0,
0,
0,
0,
0,
0,
0,
0,
0,
0,
0,
0,
0,
0,
0,
0,
0,
1,
0,
0,
0,
0,
0,
0,
0,
0,
0,
0,
0,
0,
0,
0,
0,
0,
0,
0,
0,
0,
0,
0,
0,
0,
0,
0,
0,
0,
0,
0,
0,
0,
0,
0,
0,
0,
0,
0,
0,
0,
0,
0,
0,
0,
0,
0,
0,
0,
0,
0,
0,
0,
0,
0,
0,
0,
0,
0,
0,
0,
0,
0,
0,
0,
0,
0,
0,
0,
0,
0,
0,
0,
0,
0,
0,
0,
0,
0,
0,
0,
0,
0,
0,
0,
0,
0,
0,
0,
0,
0,
0,
0,
0,
0,
0,
0,
0,
0,
0,
0,
0,
0,
0,
0,
0,
0,
0,
0,
0,
0,
0,
0,
0,
0,
0,
0,
0,
0,
#ENDOFDATA   :