File: N132962/Quantification/20 keV/MMM1/SPI MM1 Kaersutite[2][4].msa
#FORMAT      : EMSA/MAS Spectral Data File
#VERSION     : 1.0
#TITLE       : SPI MM1dup Kaersutite[2][all]
#DATE        : 12-MAR-2025
#TIME        : 16:22
#OWNER       : Unknown
#NPOINTS     : 4096
#NCOLUMNS    : 1
#XUNITS      : eV
#YUNITS      : counts
#DATATYPE    : Y
#XPERCHAN    : 9.99778
#OFFSET      : 1.69135
#BEAMKV      : 20
#SIGNALTYPE  : EDS
#ELEVANGLE   : 35
#AZIMANGLE   : 0
#LIVETIME    : 239.623
#REALTIME    : 254.128
#PROBECUR    : 1.02709
#TAUWIND     : 0
#TDEADLYR    : 0
#TACTLYR     : 0.045
#TALWIND     : 0.025
#CHOFFSET    : 0.0
#XLABEL      : Energy (eV)
#YLABEL      : Counts
#XPOSITION   : -1.62776
#YPOSITION   : 3.57384
#ZPOSITION   : 31.03608
#EDSDET      : SD
##SPECIMEN   : SPI MM1dup Kaersutite[2][all]
##DET_HASH   : 12273538-fd48-a23f-0a19-f1e6fa85caef
##CALIB_HASH : 6abaa72c-aa41-8738-0be9-f592914732f3
##WORKING    : 15.0 mm
##DET_NAME   : EDAX All
##DET_MODE   : MediumLE
#SPECTRUM    :
26,
169,
10037,
5746,
42658,
8379,
2436,
4825,
4232,
52710,
7011,
20428,
40904,
20632,
3216,
2737,
2923,
2749,
2677,
2711,
2613,
2594,
2437,
2924,
4711,
2653,
21907,
8205,
2812,
4906,
1909,
1775,
10391,
2646,
1593,
2775,
1667,
1403,
1429,
1451,
1309,
1249,
1484,
1144,
1191,
4942,
13369,
1125,
958,
1019,
2287,
1626,
832,
822,
848,
712,
746,
666,
725,
678,
666,
664,
607,
595,
538,
535,
535,
487,
486,
525,
460,
425,
433,
411,
402,
368,
371,
369,
355,
368,
293,
295,
274,
293,
287,
233,
247,
226,
215,
234,
184,
192,
182,
190,
161,
173,
156,
158,
159,
142,
119,
139,
107,
123,
116,
122,
96,
85,
69,
75,
65,
66,
56,
53,
62,
64,
42,
40,
46,
43,
42,
32,
30,
32,
30,
24,
28,
21,
16,
16,
14,
4,
15,
13,
10,
5,
5,
3,
2,
3,
4,
1,
0,
2,
0,
0,
0,
1,
0,
0,
0,
0,
0,
1,
0,
0,
0,
0,
0,
0,
0,
0,
0,
0,
0,
0,
0,
0,
0,
0,
0,
0,
0,
0,
0,
0,
0,
0,
0,
0,
0,
0,
0,
0,
0,
0,
0,
0,
0,
0,
1,
0,
0,
0,
0,
0,
0,
0,
0,
0,
0,
0,
0,
0,
0,
0,
0,
0,
0,
0,
0,
0,
0,
0,
0,
0,
0,
0,
0,
0,
0,
0,
0,
0,
0,
0,
0,
0,
0,
0,
0,
0,
0,
0,
0,
0,
0,
0,
0,
0,
0,
0,
0,
0,
0,
0,
0,
0,
0,
0,
0,
0,
0,
0,
0,
0,
0,
0,
0,
0,
0,
0,
0,
0,
0,
0,
0,
0,
0,
0,
0,
0,
0,
0,
0,
0,
0,
0,
0,
0,
0,
0,
0,
0,
0,
0,
0,
0,
0,
0,
0,
0,
0,
0,
#ENDOFDATA   :