File: N132962/Quantification/20 keV/MMM1/SPI MM1 Barite[4][4].msa
#FORMAT      : EMSA/MAS Spectral Data File
#VERSION     : 1.0
#TITLE       : SPI MM1 Barite[4][all]
#DATE        : 11-MAR-2025
#TIME        : 13:30
#OWNER       : Unknown
#NPOINTS     : 4096
#NCOLUMNS    : 1
#XUNITS      : eV
#YUNITS      : counts
#DATATYPE    : Y
#XPERCHAN    : 9.99778
#OFFSET      : 1.69135
#BEAMKV      : 20
#SIGNALTYPE  : EDS
#ELEVANGLE   : 35
#AZIMANGLE   : 0
#LIVETIME    : 239.962
#REALTIME    : 259.014
#PROBECUR    : 1.02853
#TAUWIND     : 0
#TDEADLYR    : 0
#TACTLYR     : 0.045
#TALWIND     : 0.025
#CHOFFSET    : 0.0
#XLABEL      : Energy (eV)
#YLABEL      : Counts
#XPOSITION   : -0.37549
#YPOSITION   : -4.97811
#ZPOSITION   : 30.9284
#EDSDET      : SD
##SPECIMEN   : SPI MM1 Barite[4][all]
##DET_HASH   : 12273538-fd48-a23f-0a19-f1e6fa85caef
##CALIB_HASH : 6abaa72c-aa41-8738-0be9-f592914732f3
##WORKING    : 15.0 mm
##DET_NAME   : EDAX All
##DET_MODE   : MediumLE
#SPECTRUM    :
19,
1101,
13973,
8126,
55371,
5904,
5308,
6116,
4272,
4307,
4746,
5228,
5817,
6276,
5604,
5575,
27761,
24405,
7156,
5127,
5181,
5025,
4969,
4664,
4645,
4513,
4412,
4392,
6557,
4701,
4238,
9383,
83088,
5092,
19034,
26140,
6108,
16001,
3272,
5077,
5107,
3806,
3397,
2651,
2237,
2302,
2481,
2254,
2135,
2155,
2018,
1981,
1969,
2069,
1993,
1878,
1784,
1810,
1746,
1707,
1672,
1610,
1555,
1474,
1505,
1437,
1420,
1451,
1394,
1342,
1245,
1248,
1228,
1115,
1160,
1084,
1048,
964,
981,
910,
947,
856,
853,
819,
766,
781,
715,
744,
680,
623,
660,
614,
576,
561,
560,
537,
516,
491,
462,
461,
426,
407,
351,
379,
305,
347,
317,
321,
291,
278,
251,
215,
260,
219,
204,
187,
173,
164,
171,
142,
137,
138,
134,
107,
108,
102,
84,
94,
62,
84,
62,
61,
56,
46,
35,
38,
24,
22,
28,
20,
12,
3,
6,
1,
1,
1,
0,
2,
0,
2,
0,
0,
4,
1,
3,
3,
0,
1,
0,
0,
1,
0,
4,
0,
0,
0,
0,
0,
0,
0,
0,
0,
0,
0,
0,
0,
1,
0,
0,
1,
0,
0,
0,
0,
0,
0,
0,
0,
0,
0,
0,
0,
0,
0,
0,
0,
0,
0,
0,
0,
0,
0,
0,
0,
0,
0,
0,
0,
0,
1,
0,
1,
0,
0,
0,
0,
0,
0,
0,
0,
0,
0,
0,
0,
0,
0,
0,
0,
0,
1,
0,
0,
0,
0,
0,
0,
0,
0,
0,
0,
0,
0,
0,
0,
0,
0,
0,
0,
0,
0,
0,
0,
0,
0,
0,
0,
0,
0,
0,
0,
0,
0,
0,
0,
0,
0,
0,
0,
0,
0,
0,
0,
0,
0,
0,
0,
0,
0,
0,
0,
0,
0,
0,
0,
0,
0,
0,
0,
0,
0,
0,
0,
0,
0,
#ENDOFDATA   :