File: N132962/Quantification/20 keV/MMM1/SPI MM1 Benitoite[5][4].msa
#FORMAT      : EMSA/MAS Spectral Data File
#VERSION     : 1.0
#TITLE       : SPI MM1 Benitoite[5][all]
#DATE        : 11-MAR-2025
#TIME        : 13:22
#OWNER       : Unknown
#NPOINTS     : 4096
#NCOLUMNS    : 1
#XUNITS      : eV
#YUNITS      : counts
#DATATYPE    : Y
#XPERCHAN    : 9.99778
#OFFSET      : 1.69135
#BEAMKV      : 20
#SIGNALTYPE  : EDS
#ELEVANGLE   : 35
#AZIMANGLE   : 0
#LIVETIME    : 239.907
#REALTIME    : 256.805
#PROBECUR    : 1.02853
#TAUWIND     : 0
#TDEADLYR    : 0
#TACTLYR     : 0.045
#TALWIND     : 0.025
#CHOFFSET    : 0.0
#XLABEL      : Energy (eV)
#YLABEL      : Counts
#XPOSITION   : -3.35288
#YPOSITION   : -4.91165
#ZPOSITION   : 30.9284
#EDSDET      : SD
##SPECIMEN   : SPI MM1 Benitoite[5][all]
##D2STDCMP   : Benitoite,(O:34.828),(Si:20.3791),(Ti:11.5776),(Ba:33.2153)
##DET_HASH   : 12273538-fd48-a23f-0a19-f1e6fa85caef
##CALIB_HASH : 6abaa72c-aa41-8738-0be9-f592914732f3
##WORKING    : 15.0 mm
##DET_NAME   : EDAX All
##DET_MODE   : MediumLE
#SPECTRUM    :
33,
262,
11596,
12021,
44656,
3633,
4018,
4874,
3763,
4113,
4662,
5539,
46274,
23245,
3811,
4032,
4229,
4066,
4067,
4244,
4154,
3808,
3954,
3671,
3761,
3646,
3474,
3282,
4665,
3436,
3236,
6396,
80417,
7124,
11341,
19471,
4671,
9027,
2414,
3400,
3415,
2706,
2408,
1940,
1850,
1896,
1989,
1723,
1600,
1548,
1563,
1497,
1502,
1506,
1448,
1317,
1336,
1330,
1294,
1276,
1143,
1181,
1110,
1079,
1132,
1064,
981,
1013,
948,
960,
882,
845,
842,
762,
756,
750,
702,
754,
731,
669,
643,
584,
605,
580,
557,
516,
515,
478,
477,
479,
413,
445,
397,
369,
376,
345,
326,
334,
307,
281,
286,
280,
245,
244,
243,
230,
186,
207,
200,
195,
157,
153,
152,
138,
131,
126,
116,
112,
105,
104,
97,
81,
81,
70,
67,
67,
61,
56,
51,
47,
44,
40,
35,
23,
30,
21,
19,
16,
15,
12,
6,
6,
3,
4,
0,
0,
1,
0,
2,
2,
0,
0,
0,
0,
0,
0,
2,
0,
0,
0,
1,
0,
1,
0,
0,
0,
0,
0,
0,
0,
0,
1,
0,
0,
0,
0,
0,
0,
0,
0,
0,
0,
0,
0,
0,
0,
0,
0,
0,
0,
0,
0,
0,
0,
0,
0,
0,
0,
0,
0,
0,
0,
0,
0,
0,
0,
0,
0,
0,
0,
0,
0,
0,
0,
0,
0,
0,
0,
0,
0,
0,
0,
0,
0,
0,
0,
0,
0,
0,
0,
0,
0,
0,
0,
0,
0,
0,
0,
0,
0,
0,
0,
0,
0,
0,
0,
0,
0,
0,
0,
0,
0,
0,
0,
0,
0,
0,
0,
0,
0,
0,
0,
0,
0,
0,
0,
0,
0,
0,
0,
0,
0,
0,
0,
0,
0,
0,
0,
0,
0,
0,
0,
0,
0,
0,
0,
0,
0,
0,
0,
0,
0,
0,
0,
#ENDOFDATA   :