File: N132962/Quantification/20 keV/MMM1/SPI MM1 Chlorite[1][4].msa
#FORMAT      : EMSA/MAS Spectral Data File
#VERSION     : 1.0
#TITLE       : SPI MM1dup Chlorite[1][all]
#DATE        : 12-MAR-2025
#TIME        : 14:19
#OWNER       : Unknown
#NPOINTS     : 4096
#NCOLUMNS    : 1
#XUNITS      : eV
#YUNITS      : counts
#DATATYPE    : Y
#XPERCHAN    : 9.99778
#OFFSET      : 1.69135
#BEAMKV      : 20
#SIGNALTYPE  : EDS
#ELEVANGLE   : 35
#AZIMANGLE   : 0
#LIVETIME    : 239.762
#REALTIME    : 254.634
#PROBECUR    : 1.02867
#TAUWIND     : 0
#TDEADLYR    : 0
#TACTLYR     : 0.045
#TALWIND     : 0.025
#CHOFFSET    : 0.0
#XLABEL      : Energy (eV)
#YLABEL      : Counts
#XPOSITION   : 6.15716
#YPOSITION   : -0.3659
#ZPOSITION   : 31.03608
#EDSDET      : SD
##SPECIMEN   : SPI MM1dup Chlorite[1][all]
##DET_HASH   : 12273538-fd48-a23f-0a19-f1e6fa85caef
##CALIB_HASH : 6abaa72c-aa41-8738-0be9-f592914732f3
##WORKING    : 15.0 mm
##DET_NAME   : EDAX All
##DET_MODE   : MediumLE
#SPECTRUM    :
17,
176,
8714,
7503,
80851,
4395,
2749,
3234,
4821,
152302,
6403,
21995,
28382,
14349,
2265,
2126,
2521,
2097,
2222,
2144,
2097,
2086,
2018,
1981,
1894,
1909,
1745,
1716,
1656,
1576,
1426,
1455,
1436,
1314,
1276,
1258,
1248,
1129,
1874,
3224,
1065,
1075,
1264,
1125,
944,
1936,
4392,
853,
744,
811,
1133,
956,
669,
832,
691,
627,
609,
619,
571,
546,
500,
464,
450,
461,
434,
454,
422,
392,
399,
374,
368,
341,
323,
310,
316,
308,
297,
278,
283,
252,
268,
207,
236,
212,
203,
179,
192,
157,
191,
163,
170,
177,
142,
134,
128,
141,
125,
120,
100,
101,
96,
86,
82,
82,
84,
67,
66,
65,
59,
48,
58,
56,
41,
34,
34,
39,
27,
29,
38,
29,
29,
28,
30,
26,
21,
15,
23,
20,
7,
8,
8,
15,
9,
4,
13,
10,
6,
5,
3,
1,
1,
2,
1,
0,
0,
0,
0,
0,
0,
1,
0,
0,
0,
0,
0,
0,
0,
0,
0,
0,
0,
0,
0,
0,
0,
0,
0,
0,
0,
0,
0,
0,
0,
0,
0,
0,
0,
0,
0,
0,
0,
0,
0,
0,
0,
0,
0,
0,
0,
0,
0,
0,
0,
0,
0,
0,
0,
0,
0,
0,
0,
0,
0,
0,
0,
0,
0,
0,
0,
0,
0,
0,
0,
0,
0,
0,
0,
0,
0,
0,
0,
0,
0,
0,
0,
0,
0,
0,
0,
0,
0,
0,
0,
0,
0,
0,
0,
0,
0,
0,
0,
0,
0,
0,
0,
0,
0,
0,
0,
0,
0,
0,
0,
0,
0,
0,
0,
0,
0,
0,
0,
0,
0,
0,
0,
0,
0,
0,
0,
0,
0,
0,
0,
0,
0,
0,
0,
0,
0,
0,
0,
0,
0,
0,
0,
0,
0,
0,
0,
0,
0,
0,
0,
0,
#ENDOFDATA   :