File: N132962/Quantification/20 keV/MMM1/SPI MM1 Calcite[7][4].msa
#FORMAT      : EMSA/MAS Spectral Data File
#VERSION     : 1.0
#TITLE       : SPI MM1 Calcite[7][all]
#DATE        : 11-MAR-2025
#TIME        : 14:19
#OWNER       : Unknown
#NPOINTS     : 4096
#NCOLUMNS    : 1
#XUNITS      : eV
#YUNITS      : counts
#DATATYPE    : Y
#XPERCHAN    : 9.99778
#OFFSET      : 1.69135
#BEAMKV      : 20
#SIGNALTYPE  : EDS
#ELEVANGLE   : 35
#AZIMANGLE   : 0
#LIVETIME    : 239.924
#REALTIME    : 252.196
#PROBECUR    : 1.02902
#TAUWIND     : 0
#TDEADLYR    : 0
#TACTLYR     : 0.045
#TALWIND     : 0.025
#CHOFFSET    : 0.0
#XLABEL      : Energy (eV)
#YLABEL      : Counts
#XPOSITION   : -0.14386
#YPOSITION   : -2.86442
#ZPOSITION   : 30.9284
#EDSDET      : SD
##SPECIMEN   : SPI MM1 Calcite[7][all]
##D2STDCMP   : Calcite,(C:12.0003),(O:47.9565),(Ca:40.0432),5.0
##DET_HASH   : 12273538-fd48-a23f-0a19-f1e6fa85caef
##CALIB_HASH : 6abaa72c-aa41-8738-0be9-f592914732f3
##WORKING    : 15.0 mm
##DET_NAME   : EDAX All
##DET_MODE   : MediumLE
#SPECTRUM    :
31,
287,
38657,
2817,
23563,
1667,
2073,
2505,
3076,
3518,
3885,
4062,
4272,
4387,
5774,
3515,
3582,
3408,
3161,
3121,
2985,
2881,
2832,
2741,
2457,
3436,
103704,
34292,
6377,
16848,
1713,
1505,
1488,
1418,
1400,
1382,
1351,
1273,
1255,
1242,
1262,
1092,
1289,
1091,
1035,
1017,
1002,
958,
921,
869,
830,
880,
880,
941,
785,
746,
710,
735,
654,
618,
593,
598,
531,
546,
524,
506,
523,
491,
505,
435,
419,
445,
405,
412,
371,
371,
335,
327,
350,
297,
301,
308,
265,
245,
254,
253,
248,
238,
209,
211,
171,
198,
191,
209,
167,
141,
167,
155,
129,
127,
121,
119,
103,
119,
99,
75,
97,
78,
68,
67,
64,
54,
61,
54,
56,
56,
57,
33,
40,
36,
34,
23,
25,
19,
27,
19,
20,
14,
24,
17,
8,
10,
7,
6,
12,
5,
4,
6,
5,
8,
1,
2,
0,
0,
0,
1,
0,
0,
1,
0,
1,
0,
0,
0,
0,
0,
0,
0,
0,
0,
0,
0,
0,
0,
0,
0,
1,
1,
0,
0,
0,
0,
0,
0,
0,
0,
0,
0,
0,
0,
0,
0,
0,
0,
0,
0,
0,
0,
0,
0,
0,
0,
0,
0,
0,
0,
0,
0,
0,
0,
0,
0,
0,
0,
0,
0,
0,
0,
0,
0,
0,
0,
0,
0,
0,
0,
0,
0,
0,
0,
0,
0,
0,
0,
0,
0,
0,
0,
0,
0,
0,
0,
0,
0,
0,
0,
0,
0,
0,
0,
0,
0,
0,
0,
0,
0,
0,
0,
0,
0,
0,
0,
0,
0,
0,
0,
0,
0,
0,
0,
0,
0,
0,
0,
0,
0,
0,
0,
0,
0,
0,
0,
0,
0,
0,
0,
0,
0,
0,
0,
0,
0,
0,
0,
0,
0,
0,
0,
0,
0,
0,
0,
0,
0,
#ENDOFDATA   :