File: N132962/Quantification/20 keV/MMM1/SPI MM1 Almandine[1][4].msa
#FORMAT      : EMSA/MAS Spectral Data File
#VERSION     : 1.0
#TITLE       : SPI MM1 Almandine[1][all]
#DATE        : 11-MAR-2025
#TIME        : 12:59
#OWNER       : Unknown
#NPOINTS     : 4096
#NCOLUMNS    : 1
#XUNITS      : eV
#YUNITS      : counts
#DATATYPE    : Y
#XPERCHAN    : 9.99778
#OFFSET      : 1.69135
#BEAMKV      : 20
#SIGNALTYPE  : EDS
#ELEVANGLE   : 35
#AZIMANGLE   : 0
#LIVETIME    : 239.831
#REALTIME    : 255.275
#PROBECUR    : 1.02699
#TAUWIND     : 0
#TDEADLYR    : 0
#TACTLYR     : 0.045
#TALWIND     : 0.025
#CHOFFSET    : 0.0
#XLABEL      : Energy (eV)
#YLABEL      : Counts
#XPOSITION   : 0.40408
#YPOSITION   : -7.81271
#ZPOSITION   : 30.9284
#EDSDET      : SD
##SPECIMEN   : SPI MM1 Almandine[1][all]
##D2STDCMP   : Almandine,(O:38.5719),(Al:10.8416),(Si:16.9275),(Fe:33.6591),4.05
##DET_HASH   : 12273538-fd48-a23f-0a19-f1e6fa85caef
##CALIB_HASH : 6abaa72c-aa41-8738-0be9-f592914732f3
##WORKING    : 15.0 mm
##DET_NAME   : EDAX All
##DET_MODE   : MediumLE
#SPECTRUM    :
32,
189,
8883,
6360,
60496,
15297,
2379,
2983,
3747,
41935,
8936,
31445,
39111,
19402,
2857,
2681,
3056,
2776,
2756,
2708,
2657,
2630,
2556,
2619,
2389,
2530,
9407,
4477,
2359,
3133,
1916,
1872,
1806,
1931,
1662,
1728,
1547,
1586,
1492,
1508,
1431,
1355,
2299,
1375,
1319,
9377,
27757,
1417,
1096,
1197,
4083,
2445,
798,
912,
869,
827,
772,
774,
818,
720,
681,
638,
667,
639,
602,
603,
578,
551,
575,
502,
480,
477,
477,
436,
444,
442,
389,
400,
373,
354,
363,
352,
324,
303,
266,
296,
278,
247,
239,
242,
223,
219,
231,
208,
192,
167,
162,
187,
128,
149,
132,
143,
132,
104,
123,
92,
94,
87,
109,
100,
76,
77,
79,
76,
68,
63,
53,
53,
41,
54,
54,
40,
27,
33,
33,
18,
30,
26,
21,
28,
28,
16,
14,
13,
12,
6,
11,
10,
4,
3,
2,
1,
1,
0,
0,
0,
1,
0,
0,
0,
0,
0,
1,
0,
0,
0,
0,
0,
1,
1,
0,
0,
0,
0,
0,
2,
0,
0,
0,
0,
0,
0,
0,
0,
0,
0,
0,
0,
0,
0,
0,
0,
1,
0,
0,
0,
0,
0,
0,
0,
0,
0,
0,
0,
0,
0,
0,
0,
0,
0,
0,
0,
0,
0,
0,
0,
0,
0,
0,
0,
0,
0,
0,
0,
0,
0,
0,
0,
0,
0,
0,
0,
0,
0,
0,
0,
0,
0,
0,
0,
0,
0,
0,
0,
0,
1,
0,
0,
0,
0,
0,
0,
0,
0,
0,
0,
0,
0,
0,
0,
0,
0,
0,
0,
0,
0,
0,
0,
0,
0,
0,
0,
0,
0,
0,
0,
0,
0,
0,
0,
0,
0,
0,
0,
0,
0,
0,
0,
0,
0,
0,
0,
0,
0,
0,
0,
0,
0,
0,
0,
0,
0,
0,
0,
#ENDOFDATA   :