File: N132962/Quantification/20 keV/MMM1/SPI MM1 Chalcopyrite[5][4].msa
#FORMAT      : EMSA/MAS Spectral Data File
#VERSION     : 1.0
#TITLE       : SPI MM1 Chalcopyrite[5][all]
#DATE        : 11-MAR-2025
#TIME        : 14:32
#OWNER       : Unknown
#NPOINTS     : 4096
#NCOLUMNS    : 1
#XUNITS      : eV
#YUNITS      : counts
#DATATYPE    : Y
#XPERCHAN    : 9.99778
#OFFSET      : 1.69135
#BEAMKV      : 20
#SIGNALTYPE  : EDS
#ELEVANGLE   : 35
#AZIMANGLE   : 0
#LIVETIME    : 239.841
#REALTIME    : 260.396
#PROBECUR    : 1.02809
#TAUWIND     : 0
#TDEADLYR    : 0
#TACTLYR     : 0.045
#TALWIND     : 0.025
#CHOFFSET    : 0.0
#XLABEL      : Energy (eV)
#YLABEL      : Counts
#XPOSITION   : -4.97109
#YPOSITION   : -3.90795
#ZPOSITION   : 30.9284
#EDSDET      : SD
##SPECIMEN   : SPI MM1 Chalcopyrite[5][all]
##D2STDCMP   : Chalcopyrite,(S:34.9407),(Fe:30.4314),(Cu:34.6279),4.2
##DET_HASH   : 12273538-fd48-a23f-0a19-f1e6fa85caef
##CALIB_HASH : 6abaa72c-aa41-8738-0be9-f592914732f3
##WORKING    : 15.0 mm
##DET_NAME   : EDAX All
##DET_MODE   : MediumLE
#SPECTRUM    :
29,
443,
10776,
3152,
13316,
42521,
11773,
28918,
3470,
3943,
4580,
5062,
5573,
5636,
5430,
5832,
66050,
52084,
10937,
3705,
3762,
3911,
3854,
3949,
3619,
3508,
3454,
3495,
3374,
3261,
3234,
3055,
3156,
3415,
2945,
2854,
2739,
2606,
2556,
2600,
2449,
2306,
2348,
2245,
2376,
17565,
50672,
2457,
2053,
2034,
7619,
4763,
1620,
1692,
1567,
1425,
1831,
25163,
16480,
1460,
1224,
1324,
1477,
3512,
4189,
1131,
1036,
1007,
967,
934,
984,
910,
879,
926,
894,
797,
774,
804,
751,
661,
688,
635,
642,
580,
595,
516,
529,
543,
496,
475,
438,
449,
419,
384,
364,
353,
332,
345,
309,
286,
303,
293,
287,
297,
235,
224,
199,
196,
208,
184,
176,
190,
152,
133,
148,
112,
127,
118,
102,
113,
91,
106,
91,
73,
67,
69,
48,
53,
50,
36,
39,
54,
36,
22,
27,
26,
22,
12,
17,
12,
6,
2,
1,
6,
0,
0,
3,
2,
2,
0,
1,
0,
0,
1,
2,
0,
0,
1,
0,
1,
2,
0,
1,
0,
0,
0,
0,
0,
0,
0,
1,
1,
1,
0,
2,
0,
1,
0,
0,
0,
0,
0,
0,
0,
0,
0,
0,
0,
0,
0,
0,
0,
0,
0,
0,
0,
0,
0,
0,
1,
0,
0,
0,
0,
0,
0,
0,
0,
0,
0,
0,
0,
0,
0,
0,
0,
0,
0,
0,
0,
0,
0,
0,
0,
0,
0,
0,
0,
0,
0,
0,
0,
0,
0,
0,
0,
0,
0,
0,
0,
0,
0,
0,
0,
0,
0,
0,
0,
0,
0,
0,
0,
0,
0,
0,
0,
0,
0,
0,
0,
0,
0,
0,
0,
0,
0,
0,
0,
0,
0,
0,
0,
0,
0,
0,
0,
0,
0,
0,
0,
0,
0,
0,
0,
0,
0,
0,
0,
0,
0,
0,
0,
0,
0,
#ENDOFDATA   :