File: N132962/Quantification/20 keV/MMM1/SPI MM1 Fluorapatite[0][4].msa
#FORMAT      : EMSA/MAS Spectral Data File
#VERSION     : 1.0
#TITLE       : SPI MM1 Fluorapatite[0][all]
#DATE        : 11-MAR-2025
#TIME        : 14:36
#OWNER       : Unknown
#NPOINTS     : 4096
#NCOLUMNS    : 1
#XUNITS      : eV
#YUNITS      : counts
#DATATYPE    : Y
#XPERCHAN    : 9.99778
#OFFSET      : 1.69135
#BEAMKV      : 20
#SIGNALTYPE  : EDS
#ELEVANGLE   : 35
#AZIMANGLE   : 0
#LIVETIME    : 239.887
#REALTIME    : 255.655
#PROBECUR    : 1.02809
#TAUWIND     : 0
#TDEADLYR    : 0
#TACTLYR     : 0.045
#TALWIND     : 0.025
#CHOFFSET    : 0.0
#XLABEL      : Energy (eV)
#YLABEL      : Counts
#XPOSITION   : -2.61176
#YPOSITION   : 1.88828
#ZPOSITION   : 30.9284
#EDSDET      : SD
##SPECIMEN   : SPI MM1 Fluorapatite[0][all]
##D2STDCMP   : Fluorapatite,(O:35.868),(F:3.5492),(P:23.146),(Ca:37.4368)
##DET_HASH   : 12273538-fd48-a23f-0a19-f1e6fa85caef
##CALIB_HASH : 6abaa72c-aa41-8738-0be9-f592914732f3
##WORKING    : 15.0 mm
##DET_NAME   : EDAX All
##DET_MODE   : MediumLE
#SPECTRUM    :
28,
242,
17925,
3129,
21103,
6397,
2771,
3479,
3833,
4280,
4726,
5043,
5311,
7612,
63797,
19155,
4189,
3619,
3459,
3121,
3120,
2991,
3003,
2926,
2710,
3650,
98907,
32950,
6332,
16545,
1906,
1736,
1697,
1779,
1770,
1742,
1709,
1607,
1581,
1437,
1479,
1621,
1398,
1342,
1250,
1193,
1260,
1122,
1113,
1070,
1002,
999,
1024,
1131,
903,
928,
829,
812,
781,
724,
767,
694,
687,
705,
627,
628,
641,
619,
565,
534,
551,
544,
492,
489,
488,
443,
444,
398,
386,
391,
394,
358,
365,
349,
313,
289,
303,
308,
286,
256,
250,
240,
230,
199,
188,
199,
169,
173,
195,
151,
144,
173,
153,
129,
129,
112,
111,
81,
79,
111,
92,
85,
84,
76,
74,
58,
60,
54,
46,
63,
42,
44,
45,
48,
26,
29,
22,
33,
22,
22,
21,
14,
17,
10,
19,
7,
10,
8,
10,
5,
3,
3,
1,
1,
0,
1,
0,
0,
1,
2,
2,
1,
0,
1,
0,
0,
0,
0,
0,
0,
0,
0,
0,
0,
0,
0,
0,
0,
0,
0,
0,
0,
0,
0,
0,
0,
0,
0,
0,
0,
0,
0,
0,
0,
1,
0,
0,
0,
0,
0,
0,
0,
0,
0,
0,
0,
0,
0,
0,
0,
0,
0,
0,
0,
0,
0,
0,
0,
0,
0,
0,
0,
0,
0,
0,
0,
0,
0,
0,
0,
0,
0,
0,
0,
0,
0,
0,
0,
0,
0,
0,
0,
0,
0,
0,
0,
0,
0,
0,
0,
0,
0,
0,
0,
0,
0,
0,
0,
0,
0,
0,
0,
0,
0,
0,
0,
0,
0,
0,
0,
0,
0,
0,
0,
0,
0,
0,
0,
0,
0,
0,
0,
0,
0,
0,
0,
0,
0,
0,
0,
0,
0,
0,
0,
0,
0,
0,
0,
0,
0,
0,
0,
0,
0,
#ENDOFDATA   :