File: N132962/Quantification/20 keV/MMM1/SPI MM1 Diopside[5][4].msa
#FORMAT      : EMSA/MAS Spectral Data File
#VERSION     : 1.0
#TITLE       : SPI MM1dup Diopside[5][all]
#DATE        : 12-MAR-2025
#TIME        : 15:41
#OWNER       : Unknown
#NPOINTS     : 4096
#NCOLUMNS    : 1
#XUNITS      : eV
#YUNITS      : counts
#DATATYPE    : Y
#XPERCHAN    : 9.99778
#OFFSET      : 1.69135
#BEAMKV      : 20
#SIGNALTYPE  : EDS
#ELEVANGLE   : 35
#AZIMANGLE   : 0
#LIVETIME    : 239.882
#REALTIME    : 255.2746
#PROBECUR    : 1.02695
#TAUWIND     : 0
#TDEADLYR    : 0
#TACTLYR     : 0.045
#TALWIND     : 0.025
#CHOFFSET    : 0.0
#XLABEL      : Energy (eV)
#YLABEL      : Counts
#XPOSITION   : 2.18968
#YPOSITION   : 1.42283
#ZPOSITION   : 31.03608
#EDSDET      : SD
##SPECIMEN   : SPI MM1dup Diopside[5][all]
##D2STDCMP   : Diopside,(O:44.3298),(Mg:11.2237),(Si:25.939),(Ca:18.5075)
##DET_HASH   : 12273538-fd48-a23f-0a19-f1e6fa85caef
##CALIB_HASH : 6abaa72c-aa41-8738-0be9-f592914732f3
##WORKING    : 15.0 mm
##DET_NAME   : EDAX All
##DET_MODE   : MediumLE
#SPECTRUM    :
18,
160,
10297,
4010,
35739,
2591,
2761,
3502,
4432,
81257,
3986,
5423,
62704,
30149,
3394,
2635,
2972,
2611,
2627,
2538,
2557,
2432,
2430,
2277,
2233,
2800,
44535,
15942,
3800,
8218,
1668,
1441,
1615,
1417,
1446,
1467,
1343,
1307,
1316,
1453,
1140,
1175,
1189,
1037,
1022,
1352,
1869,
925,
933,
910,
970,
890,
766,
860,
793,
763,
735,
678,
675,
643,
622,
642,
586,
580,
556,
551,
517,
459,
464,
474,
452,
395,
395,
400,
397,
348,
323,
356,
356,
338,
289,
302,
273,
296,
268,
244,
218,
241,
196,
201,
204,
194,
181,
152,
185,
126,
153,
156,
139,
152,
119,
129,
111,
117,
85,
97,
65,
75,
92,
81,
58,
71,
56,
68,
51,
47,
47,
33,
52,
34,
41,
25,
30,
24,
31,
16,
19,
23,
23,
16,
15,
12,
15,
21,
13,
7,
4,
10,
6,
3,
2,
2,
1,
1,
0,
0,
0,
0,
0,
0,
0,
0,
0,
0,
0,
0,
0,
0,
0,
0,
0,
0,
0,
1,
0,
0,
0,
0,
0,
0,
0,
0,
0,
0,
0,
0,
0,
0,
0,
0,
0,
0,
0,
0,
0,
0,
0,
0,
0,
0,
0,
0,
1,
0,
0,
0,
0,
0,
0,
0,
0,
0,
0,
0,
0,
0,
0,
0,
0,
0,
0,
0,
0,
0,
0,
0,
0,
0,
0,
0,
0,
0,
0,
0,
0,
0,
0,
0,
0,
0,
0,
0,
0,
0,
0,
0,
0,
0,
0,
0,
0,
0,
0,
0,
0,
0,
0,
0,
0,
0,
0,
0,
0,
0,
0,
0,
0,
0,
0,
0,
0,
0,
0,
0,
0,
0,
0,
0,
0,
0,
0,
0,
0,
0,
0,
0,
0,
0,
0,
0,
0,
0,
0,
0,
0,
0,
0,
0,
0,
0,
0,
0,
0,
0,
#ENDOFDATA   :