File: N132962/Quantification/20 keV/MMM1/SPI MM1 Cryolite[7][4].msa
#FORMAT      : EMSA/MAS Spectral Data File
#VERSION     : 1.0
#TITLE       : SPI MM1dup Cryolite[7][all]
#DATE        : 12-MAR-2025
#TIME        : 13:48
#OWNER       : Unknown
#NPOINTS     : 4096
#NCOLUMNS    : 1
#XUNITS      : eV
#YUNITS      : counts
#DATATYPE    : Y
#XPERCHAN    : 9.99778
#OFFSET      : 1.69135
#BEAMKV      : 20
#SIGNALTYPE  : EDS
#ELEVANGLE   : 35
#AZIMANGLE   : 0
#LIVETIME    : 239.962
#REALTIME    : 258.532
#PROBECUR    : 1.02627
#TAUWIND     : 0
#TDEADLYR    : 0
#TACTLYR     : 0.045
#TALWIND     : 0.025
#CHOFFSET    : 0.0
#XLABEL      : Energy (eV)
#YLABEL      : Counts
#XPOSITION   : -3.98482
#YPOSITION   : -0.54513
#ZPOSITION   : 31.03608
#EDSDET      : SD
##SPECIMEN   : SPI MM1dup Cryolite[7][all]
##D2STDCMP   : Cryolite,(F:54.2963),(Na:32.8517),(Al:12.8519)
##DET_HASH   : 12273538-fd48-a23f-0a19-f1e6fa85caef
##CALIB_HASH : 6abaa72c-aa41-8738-0be9-f592914732f3
##WORKING    : 15.0 mm
##DET_NAME   : EDAX All
##DET_MODE   : MediumLE
#SPECTRUM    :
24,
374,
9334,
4396,
13311,
335753,
2459,
38342,
9862,
2363,
7195,
26682,
3175,
2425,
2192,
2543,
2288,
2232,
2366,
2266,
2172,
2147,
2000,
1899,
1957,
1788,
1721,
1683,
1568,
1548,
1516,
1464,
1432,
1401,
1218,
1244,
1229,
1084,
1120,
1097,
988,
994,
958,
957,
945,
876,
911,
785,
739,
743,
748,
668,
722,
678,
639,
629,
583,
581,
609,
512,
520,
486,
462,
464,
453,
454,
400,
397,
396,
371,
360,
342,
325,
347,
333,
309,
249,
283,
270,
274,
243,
217,
226,
237,
226,
183,
169,
187,
188,
183,
155,
151,
149,
116,
125,
121,
115,
111,
109,
109,
102,
92,
83,
67,
91,
62,
82,
53,
52,
74,
50,
49,
51,
44,
45,
49,
41,
24,
33,
35,
28,
17,
23,
23,
18,
16,
12,
19,
15,
6,
9,
12,
9,
15,
8,
7,
4,
2,
5,
3,
2,
1,
1,
0,
1,
0,
0,
0,
0,
0,
0,
0,
0,
0,
0,
0,
0,
0,
0,
0,
0,
0,
0,
0,
0,
0,
0,
0,
0,
0,
0,
0,
0,
0,
0,
0,
0,
0,
0,
0,
0,
0,
0,
0,
0,
0,
0,
0,
0,
0,
0,
0,
0,
0,
0,
0,
0,
0,
0,
0,
0,
0,
0,
0,
0,
0,
0,
0,
0,
0,
0,
0,
0,
0,
0,
0,
0,
0,
0,
0,
0,
0,
0,
0,
0,
0,
0,
0,
0,
0,
0,
0,
0,
0,
0,
0,
0,
0,
0,
0,
0,
0,
0,
0,
0,
0,
0,
0,
0,
0,
0,
0,
0,
0,
0,
0,
0,
0,
0,
0,
0,
0,
0,
0,
0,
0,
0,
0,
0,
0,
0,
0,
0,
0,
0,
0,
0,
0,
0,
0,
0,
0,
0,
0,
0,
0,
0,
0,
0,
0,
0,
0,
0,
0,
#ENDOFDATA   :