File: N132962/Quantification/20 keV/MMM1/SPI MM1 Diopside[7][4].msa
#FORMAT      : EMSA/MAS Spectral Data File
#VERSION     : 1.0
#TITLE       : SPI MM1dup Diopside[7][all]
#DATE        : 12-MAR-2025
#TIME        : 15:44
#OWNER       : Unknown
#NPOINTS     : 4096
#NCOLUMNS    : 1
#XUNITS      : eV
#YUNITS      : counts
#DATATYPE    : Y
#XPERCHAN    : 9.99778
#OFFSET      : 1.69135
#BEAMKV      : 20
#SIGNALTYPE  : EDS
#ELEVANGLE   : 35
#AZIMANGLE   : 0
#LIVETIME    : 239.799
#REALTIME    : 255.212
#PROBECUR    : 1.02695
#TAUWIND     : 0
#TDEADLYR    : 0
#TACTLYR     : 0.045
#TALWIND     : 0.025
#CHOFFSET    : 0.0
#XLABEL      : Energy (eV)
#YLABEL      : Counts
#XPOSITION   : 2.13231
#YPOSITION   : 1.45676
#ZPOSITION   : 31.03608
#EDSDET      : SD
##SPECIMEN   : SPI MM1dup Diopside[7][all]
##D2STDCMP   : Diopside,(O:44.3298),(Mg:11.2237),(Si:25.939),(Ca:18.5075)
##DET_HASH   : 12273538-fd48-a23f-0a19-f1e6fa85caef
##CALIB_HASH : 6abaa72c-aa41-8738-0be9-f592914732f3
##WORKING    : 15.0 mm
##DET_NAME   : EDAX All
##DET_MODE   : MediumLE
#SPECTRUM    :
25,
157,
10292,
3918,
35572,
2556,
2721,
3584,
4354,
82292,
4133,
5417,
63307,
29713,
3465,
2558,
3025,
2649,
2540,
2612,
2599,
2582,
2352,
2337,
2289,
2841,
44824,
15782,
3705,
8454,
1681,
1538,
1507,
1432,
1437,
1414,
1384,
1328,
1337,
1335,
1254,
1101,
1205,
1135,
1069,
1275,
1916,
1008,
960,
923,
954,
886,
846,
870,
717,
708,
714,
708,
676,
673,
656,
642,
643,
585,
484,
533,
517,
535,
463,
444,
446,
407,
416,
414,
398,
364,
375,
322,
333,
299,
304,
288,
288,
255,
276,
255,
230,
250,
204,
224,
203,
177,
178,
149,
177,
173,
171,
148,
140,
119,
126,
134,
96,
112,
102,
86,
96,
79,
73,
74,
77,
79,
60,
65,
48,
58,
53,
52,
47,
35,
38,
35,
38,
29,
32,
26,
18,
18,
18,
17,
13,
17,
10,
7,
5,
9,
4,
4,
13,
0,
5,
2,
2,
0,
0,
0,
0,
0,
0,
0,
0,
0,
0,
1,
0,
0,
0,
0,
0,
0,
0,
0,
0,
0,
0,
0,
0,
0,
0,
0,
0,
0,
0,
0,
0,
0,
0,
0,
0,
0,
0,
0,
0,
0,
0,
0,
0,
0,
0,
0,
0,
0,
0,
0,
0,
0,
0,
0,
0,
0,
0,
0,
0,
0,
0,
0,
0,
0,
0,
0,
0,
0,
0,
0,
0,
0,
0,
0,
0,
0,
0,
0,
0,
0,
0,
0,
0,
0,
0,
0,
0,
0,
0,
0,
0,
0,
0,
0,
0,
0,
0,
0,
0,
0,
0,
0,
0,
0,
0,
0,
0,
0,
0,
0,
0,
0,
0,
0,
0,
0,
0,
0,
0,
0,
0,
0,
0,
0,
0,
0,
0,
0,
0,
0,
0,
0,
0,
0,
0,
0,
0,
0,
0,
0,
0,
0,
0,
0,
0,
0,
0,
0,
0,
0,
#ENDOFDATA   :