File: N132962/Quantification/20 keV/MMM1/SPI MM1 Diopside[4][4].msa
#FORMAT      : EMSA/MAS Spectral Data File
#VERSION     : 1.0
#TITLE       : SPI MM1dup Diopside[4][all]
#DATE        : 12-MAR-2025
#TIME        : 15:40
#OWNER       : Unknown
#NPOINTS     : 4096
#NCOLUMNS    : 1
#XUNITS      : eV
#YUNITS      : counts
#DATATYPE    : Y
#XPERCHAN    : 9.99778
#OFFSET      : 1.69135
#BEAMKV      : 20
#SIGNALTYPE  : EDS
#ELEVANGLE   : 35
#AZIMANGLE   : 0
#LIVETIME    : 239.866
#REALTIME    : 255.274
#PROBECUR    : 1.02695
#TAUWIND     : 0
#TDEADLYR    : 0
#TACTLYR     : 0.045
#TALWIND     : 0.025
#CHOFFSET    : 0.0
#XLABEL      : Energy (eV)
#YLABEL      : Counts
#XPOSITION   : 2.119
#YPOSITION   : 1.43683
#ZPOSITION   : 31.03608
#EDSDET      : SD
##SPECIMEN   : SPI MM1dup Diopside[4][all]
##D2STDCMP   : Diopside,(O:44.3298),(Mg:11.2237),(Si:25.939),(Ca:18.5075)
##DET_HASH   : 12273538-fd48-a23f-0a19-f1e6fa85caef
##CALIB_HASH : 6abaa72c-aa41-8738-0be9-f592914732f3
##WORKING    : 15.0 mm
##DET_NAME   : EDAX All
##DET_MODE   : MediumLE
#SPECTRUM    :
36,
149,
10392,
3996,
35629,
2551,
2745,
3499,
4380,
82324,
4134,
5369,
63473,
30145,
3522,
2620,
2992,
2634,
2654,
2547,
2514,
2480,
2445,
2356,
2227,
2867,
44494,
15690,
3650,
8256,
1670,
1606,
1596,
1506,
1384,
1458,
1424,
1292,
1335,
1448,
1241,
1138,
1205,
1099,
1020,
1310,
1931,
925,
935,
909,
938,
862,
830,
863,
742,
748,
669,
722,
701,
646,
576,
601,
591,
584,
558,
515,
529,
464,
510,
454,
448,
417,
397,
384,
402,
378,
372,
354,
319,
326,
320,
313,
286,
254,
261,
230,
219,
202,
224,
184,
192,
183,
185,
180,
169,
160,
161,
143,
137,
136,
112,
123,
111,
106,
115,
84,
83,
80,
85,
56,
67,
81,
60,
57,
48,
58,
45,
45,
40,
33,
32,
26,
22,
29,
29,
19,
20,
19,
19,
17,
7,
11,
9,
10,
7,
4,
8,
5,
5,
6,
2,
2,
2,
1,
0,
0,
0,
0,
0,
1,
0,
0,
0,
0,
0,
0,
1,
0,
0,
0,
0,
0,
0,
0,
0,
0,
0,
0,
0,
0,
0,
0,
0,
0,
0,
0,
0,
0,
0,
0,
0,
0,
0,
0,
0,
0,
0,
0,
0,
0,
0,
0,
0,
0,
0,
0,
0,
0,
0,
0,
0,
0,
0,
0,
0,
0,
0,
0,
0,
0,
0,
0,
0,
0,
0,
0,
0,
0,
0,
0,
0,
0,
0,
0,
0,
0,
0,
0,
0,
0,
0,
0,
0,
0,
0,
0,
0,
0,
0,
0,
0,
0,
0,
0,
0,
0,
0,
0,
0,
0,
0,
0,
0,
0,
0,
0,
0,
0,
0,
0,
0,
0,
0,
0,
0,
0,
0,
0,
0,
0,
0,
0,
0,
0,
0,
0,
0,
0,
0,
0,
0,
0,
0,
0,
0,
0,
0,
0,
0,
0,
0,
0,
0,
0,
#ENDOFDATA   :