File: N132962/Quantification/20 keV/MMM1/SPI MM1 Anhydrite[2][4].msa
#FORMAT      : EMSA/MAS Spectral Data File
#VERSION     : 1.0
#TITLE       : SPI MM1 Anhydrite[2][all]
#DATE        : 11-MAR-2025
#TIME        : 13:46
#OWNER       : Unknown
#NPOINTS     : 4096
#NCOLUMNS    : 1
#XUNITS      : eV
#YUNITS      : counts
#DATATYPE    : Y
#XPERCHAN    : 9.99778
#OFFSET      : 1.69135
#BEAMKV      : 20
#SIGNALTYPE  : EDS
#ELEVANGLE   : 35
#AZIMANGLE   : 0
#LIVETIME    : 239.885
#REALTIME    : 255.076
#PROBECUR    : 1.02853
#TAUWIND     : 0
#TDEADLYR    : 0
#TACTLYR     : 0.045
#TALWIND     : 0.025
#CHOFFSET    : 0.0
#XLABEL      : Energy (eV)
#YLABEL      : Counts
#XPOSITION   : 4.99912
#YPOSITION   : -5.10008
#ZPOSITION   : 30.9284
#EDSDET      : SD
##SPECIMEN   : SPI MM1 Anhydrite[2][all]
##D2STDCMP   : Anhydrite,(O:47.0085),(S:23.5529),(Ca:29.4387),5.0
##DET_HASH   : 12273538-fd48-a23f-0a19-f1e6fa85caef
##CALIB_HASH : 6abaa72c-aa41-8738-0be9-f592914732f3
##WORKING    : 15.0 mm
##DET_NAME   : EDAX All
##DET_MODE   : MediumLE
#SPECTRUM    :
20,
687,
11644,
3396,
30906,
2222,
2635,
2997,
3619,
4147,
4546,
4643,
5130,
7208,
5940,
4584,
49493,
42128,
6959,
2722,
2792,
2620,
2621,
2589,
2372,
2930,
71416,
24516,
4993,
12488,
1797,
1635,
1608,
1772,
1491,
1467,
1460,
1428,
1348,
1310,
1295,
1222,
1320,
1480,
1168,
1167,
1163,
1025,
1037,
925,
985,
941,
882,
982,
818,
835,
777,
777,
770,
702,
670,
627,
686,
595,
585,
565,
587,
521,
545,
550,
526,
483,
443,
482,
447,
422,
414,
374,
365,
331,
340,
353,
315,
306,
285,
284,
267,
284,
263,
236,
226,
230,
209,
177,
191,
194,
164,
168,
115,
131,
154,
160,
134,
127,
112,
92,
103,
88,
90,
82,
68,
78,
69,
62,
68,
66,
64,
59,
48,
40,
34,
50,
39,
27,
27,
27,
22,
30,
34,
17,
9,
18,
17,
16,
10,
9,
6,
7,
5,
6,
1,
1,
0,
0,
0,
0,
0,
0,
0,
0,
0,
0,
0,
0,
0,
0,
1,
0,
0,
0,
1,
0,
0,
0,
0,
0,
0,
0,
0,
0,
0,
0,
0,
0,
0,
0,
0,
0,
0,
0,
0,
0,
0,
0,
0,
0,
0,
0,
0,
0,
0,
0,
0,
0,
0,
0,
0,
0,
0,
0,
0,
0,
0,
0,
0,
0,
0,
0,
0,
0,
0,
0,
0,
0,
0,
0,
0,
0,
0,
0,
0,
0,
0,
0,
0,
0,
0,
0,
0,
0,
0,
0,
0,
0,
0,
0,
0,
0,
0,
0,
0,
0,
0,
0,
0,
0,
0,
0,
0,
0,
0,
0,
0,
0,
0,
0,
0,
0,
0,
0,
0,
0,
0,
0,
0,
0,
0,
0,
0,
0,
0,
0,
0,
0,
0,
0,
0,
0,
0,
0,
0,
0,
0,
0,
0,
0,
0,
0,
0,
0,
0,
0,
0,
0,
#ENDOFDATA   :