File: N132962/Quantification/20 keV/MMM1/SPI MM1 Diopside[6][4].msa
#FORMAT      : EMSA/MAS Spectral Data File
#VERSION     : 1.0
#TITLE       : SPI MM1dup Diopside[6][all]
#DATE        : 12-MAR-2025
#TIME        : 15:42
#OWNER       : Unknown
#NPOINTS     : 4096
#NCOLUMNS    : 1
#XUNITS      : eV
#YUNITS      : counts
#DATATYPE    : Y
#XPERCHAN    : 9.99778
#OFFSET      : 1.69135
#BEAMKV      : 20
#SIGNALTYPE  : EDS
#ELEVANGLE   : 35
#AZIMANGLE   : 0
#LIVETIME    : 239.745
#REALTIME    : 255.146
#PROBECUR    : 1.02695
#TAUWIND     : 0
#TDEADLYR    : 0
#TACTLYR     : 0.045
#TALWIND     : 0.025
#CHOFFSET    : 0.0
#XLABEL      : Energy (eV)
#YLABEL      : Counts
#XPOSITION   : 2.1407
#YPOSITION   : 1.50702
#ZPOSITION   : 31.03608
#EDSDET      : SD
##SPECIMEN   : SPI MM1dup Diopside[6][all]
##D2STDCMP   : Diopside,(O:44.3298),(Mg:11.2237),(Si:25.939),(Ca:18.5075)
##DET_HASH   : 12273538-fd48-a23f-0a19-f1e6fa85caef
##CALIB_HASH : 6abaa72c-aa41-8738-0be9-f592914732f3
##WORKING    : 15.0 mm
##DET_NAME   : EDAX All
##DET_MODE   : MediumLE
#SPECTRUM    :
21,
161,
10281,
4040,
35427,
2567,
2648,
3589,
4382,
81410,
3915,
5414,
63535,
29903,
3492,
2611,
3001,
2635,
2647,
2582,
2497,
2561,
2431,
2381,
2246,
2808,
44625,
15591,
3618,
8176,
1722,
1559,
1576,
1471,
1367,
1401,
1388,
1322,
1249,
1433,
1166,
1188,
1230,
1160,
1089,
1239,
1908,
970,
881,
931,
981,
914,
782,
860,
736,
745,
742,
703,
642,
645,
649,
640,
568,
514,
556,
488,
447,
480,
476,
444,
445,
425,
430,
395,
367,
375,
332,
319,
354,
338,
324,
297,
281,
259,
258,
233,
252,
217,
228,
193,
209,
183,
179,
156,
172,
170,
131,
132,
141,
139,
122,
123,
110,
119,
84,
100,
78,
73,
76,
75,
61,
58,
68,
60,
45,
62,
56,
49,
40,
47,
39,
40,
35,
21,
28,
23,
23,
22,
16,
20,
18,
12,
10,
9,
6,
6,
6,
8,
6,
2,
2,
1,
0,
1,
0,
1,
0,
0,
0,
0,
0,
0,
0,
0,
0,
0,
0,
0,
1,
0,
0,
0,
0,
0,
0,
0,
0,
0,
0,
0,
0,
0,
0,
0,
0,
0,
0,
0,
0,
0,
0,
0,
0,
0,
0,
0,
0,
0,
0,
0,
0,
0,
1,
0,
0,
0,
0,
0,
0,
0,
0,
0,
0,
0,
0,
0,
0,
0,
0,
0,
0,
0,
0,
0,
0,
0,
0,
0,
0,
0,
0,
0,
0,
0,
0,
0,
0,
0,
0,
0,
0,
0,
0,
0,
0,
0,
0,
0,
0,
0,
0,
0,
0,
0,
0,
0,
0,
0,
0,
0,
0,
0,
0,
0,
0,
0,
0,
0,
0,
0,
0,
0,
0,
0,
0,
0,
0,
0,
0,
0,
0,
0,
0,
0,
0,
0,
0,
0,
0,
0,
0,
0,
0,
0,
0,
0,
0,
0,
0,
0,
0,
0,
0,
0,
#ENDOFDATA   :