File: N132962/Quantification/20 keV/MMM1/SPI MM1 Albite[6][4].msa
#FORMAT      : EMSA/MAS Spectral Data File
#VERSION     : 1.0
#TITLE       : SPI MM1 Albite[6][all]
#DATE        : 11-MAR-2025
#TIME        : 12:55
#OWNER       : Unknown
#NPOINTS     : 4096
#NCOLUMNS    : 1
#XUNITS      : eV
#YUNITS      : counts
#DATATYPE    : Y
#XPERCHAN    : 9.99778
#OFFSET      : 1.69135
#BEAMKV      : 20
#SIGNALTYPE  : EDS
#ELEVANGLE   : 35
#AZIMANGLE   : 0
#LIVETIME    : 239.836
#REALTIME    : 255.9749
#PROBECUR    : 1.02699
#TAUWIND     : 0
#TDEADLYR    : 0
#TACTLYR     : 0.045
#TALWIND     : 0.025
#CHOFFSET    : 0.0
#XLABEL      : Energy (eV)
#YLABEL      : Counts
#XPOSITION   : 3.46729
#YPOSITION   : -7.06281
#ZPOSITION   : 30.9284
#EDSDET      : SD
##SPECIMEN   : SPI MM1 Albite[6][all]
##D2STDCMP   : Albite,(O:48.8112),(Na:8.7674),(Al:10.2897),(Si:32.1316)
##DET_HASH   : 12273538-fd48-a23f-0a19-f1e6fa85caef
##CALIB_HASH : 6abaa72c-aa41-8738-0be9-f592914732f3
##WORKING    : 15.0 mm
##DET_NAME   : EDAX All
##DET_MODE   : MediumLE
#SPECTRUM    :
28,
157,
7650,
6327,
67676,
2061,
2716,
13777,
5683,
3764,
9481,
33232,
73549,
34626,
2096,
2062,
2842,
2066,
2195,
2069,
2257,
2047,
1963,
2247,
2332,
2105,
2019,
1779,
1657,
1615,
1457,
1468,
1397,
1407,
1352,
1253,
1251,
1198,
1219,
1128,
1131,
1033,
1008,
950,
934,
866,
917,
808,
796,
753,
805,
748,
692,
752,
663,
644,
581,
598,
600,
532,
550,
541,
476,
493,
465,
474,
441,
422,
409,
399,
400,
387,
352,
325,
322,
348,
326,
316,
297,
272,
261,
276,
246,
239,
217,
200,
183,
200,
194,
170,
194,
161,
155,
118,
119,
133,
115,
125,
116,
114,
94,
104,
93,
78,
80,
71,
78,
59,
63,
67,
61,
67,
37,
46,
42,
49,
34,
41,
41,
38,
36,
26,
23,
23,
21,
19,
16,
9,
13,
16,
16,
5,
7,
8,
7,
6,
6,
8,
3,
1,
6,
0,
1,
0,
0,
0,
0,
0,
0,
0,
1,
0,
0,
0,
0,
0,
0,
0,
0,
0,
0,
0,
0,
0,
0,
0,
0,
0,
0,
0,
0,
0,
0,
0,
0,
0,
0,
0,
0,
0,
0,
0,
0,
0,
0,
0,
0,
0,
0,
0,
0,
0,
0,
0,
0,
0,
0,
0,
0,
0,
0,
0,
0,
0,
0,
0,
0,
0,
0,
0,
0,
0,
0,
0,
0,
0,
0,
0,
0,
0,
0,
0,
0,
0,
0,
0,
0,
0,
0,
0,
0,
0,
0,
0,
0,
0,
0,
0,
0,
0,
0,
0,
0,
0,
0,
0,
0,
0,
0,
0,
0,
0,
0,
0,
0,
0,
0,
0,
0,
0,
0,
0,
0,
0,
0,
0,
0,
0,
0,
0,
0,
0,
0,
0,
0,
0,
0,
0,
0,
0,
0,
0,
0,
0,
0,
0,
0,
0,
0,
0,
0,
0,
0,
0,
#ENDOFDATA   :