File: N132962/Quantification/20 keV/MMM1/SPI MM1 Kaersutite[6][4].msa
#FORMAT      : EMSA/MAS Spectral Data File
#VERSION     : 1.0
#TITLE       : SPI MM1dup Kaersutite[6][all]
#DATE        : 12-MAR-2025
#TIME        : 16:26
#OWNER       : Unknown
#NPOINTS     : 4096
#NCOLUMNS    : 1
#XUNITS      : eV
#YUNITS      : counts
#DATATYPE    : Y
#XPERCHAN    : 9.99778
#OFFSET      : 1.69135
#BEAMKV      : 20
#SIGNALTYPE  : EDS
#ELEVANGLE   : 35
#AZIMANGLE   : 0
#LIVETIME    : 239.744
#REALTIME    : 254.382
#PROBECUR    : 1.02709
#TAUWIND     : 0
#TDEADLYR    : 0
#TACTLYR     : 0.045
#TALWIND     : 0.025
#CHOFFSET    : 0.0
#XLABEL      : Energy (eV)
#YLABEL      : Counts
#XPOSITION   : -1.62292
#YPOSITION   : 3.58446
#ZPOSITION   : 31.03608
#EDSDET      : SD
##SPECIMEN   : SPI MM1dup Kaersutite[6][all]
##DET_HASH   : 12273538-fd48-a23f-0a19-f1e6fa85caef
##CALIB_HASH : 6abaa72c-aa41-8738-0be9-f592914732f3
##WORKING    : 15.0 mm
##DET_NAME   : EDAX All
##DET_MODE   : MediumLE
#SPECTRUM    :
29,
187,
9530,
5835,
43645,
8655,
2640,
4970,
4227,
53312,
6736,
20235,
41973,
21047,
3160,
2755,
3023,
2704,
2731,
2734,
2668,
2562,
2497,
3010,
4884,
2664,
21994,
8483,
2790,
4930,
1893,
1848,
10534,
2563,
1664,
2768,
1682,
1434,
1283,
1420,
1297,
1235,
1441,
1178,
1213,
4886,
13579,
1121,
990,
1056,
2336,
1600,
846,
876,
794,
742,
767,
689,
691,
681,
631,
591,
576,
603,
536,
534,
550,
492,
502,
444,
458,
430,
395,
421,
373,
358,
382,
349,
364,
354,
310,
291,
297,
282,
264,
250,
257,
213,
237,
210,
235,
214,
195,
166,
162,
168,
186,
143,
157,
139,
128,
130,
107,
118,
106,
107,
91,
90,
86,
77,
67,
69,
58,
71,
62,
57,
43,
41,
37,
42,
33,
29,
34,
41,
22,
27,
24,
19,
20,
17,
13,
12,
14,
6,
5,
11,
3,
10,
5,
2,
3,
1,
3,
0,
0,
1,
0,
0,
0,
0,
1,
1,
0,
0,
1,
0,
0,
0,
0,
0,
0,
0,
0,
0,
0,
0,
0,
0,
0,
0,
0,
0,
0,
0,
0,
0,
0,
0,
0,
0,
0,
0,
0,
0,
0,
0,
0,
0,
0,
0,
0,
0,
0,
0,
0,
0,
0,
0,
0,
0,
0,
0,
0,
0,
0,
0,
0,
0,
0,
0,
0,
0,
0,
0,
0,
0,
0,
0,
0,
0,
0,
0,
0,
0,
0,
0,
0,
0,
0,
0,
0,
0,
0,
0,
0,
0,
0,
0,
0,
0,
0,
0,
0,
0,
0,
0,
0,
0,
0,
0,
0,
0,
0,
0,
0,
0,
0,
0,
0,
0,
0,
0,
0,
0,
0,
0,
0,
0,
0,
0,
0,
0,
0,
0,
0,
0,
0,
0,
0,
0,
0,
0,
0,
0,
0,
0,
0,
0,
0,
0,
0,
0,
0,
0,
#ENDOFDATA   :