File: N132962/Quantification/20 keV/MMM1/SPI MM1 Anhydrite[6][4].msa
#FORMAT      : EMSA/MAS Spectral Data File
#VERSION     : 1.0
#TITLE       : SPI MM1 Anhydrite[6][all]
#DATE        : 11-MAR-2025
#TIME        : 13:51
#OWNER       : Unknown
#NPOINTS     : 4096
#NCOLUMNS    : 1
#XUNITS      : eV
#YUNITS      : counts
#DATATYPE    : Y
#XPERCHAN    : 9.99778
#OFFSET      : 1.69135
#BEAMKV      : 20
#SIGNALTYPE  : EDS
#ELEVANGLE   : 35
#AZIMANGLE   : 0
#LIVETIME    : 239.872
#REALTIME    : 255.077
#PROBECUR    : 1.02902
#TAUWIND     : 0
#TDEADLYR    : 0
#TACTLYR     : 0.045
#TALWIND     : 0.025
#CHOFFSET    : 0.0
#XLABEL      : Energy (eV)
#YLABEL      : Counts
#XPOSITION   : 4.94911
#YPOSITION   : -5.0649
#ZPOSITION   : 30.9284
#EDSDET      : SD
##SPECIMEN   : SPI MM1 Anhydrite[6][all]
##D2STDCMP   : Anhydrite,(O:47.0085),(S:23.5529),(Ca:29.4387),5.0
##DET_HASH   : 12273538-fd48-a23f-0a19-f1e6fa85caef
##CALIB_HASH : 6abaa72c-aa41-8738-0be9-f592914732f3
##WORKING    : 15.0 mm
##DET_NAME   : EDAX All
##DET_MODE   : MediumLE
#SPECTRUM    :
17,
702,
11724,
3277,
30404,
2277,
2781,
3086,
3532,
4052,
4525,
4782,
5006,
7210,
5965,
4559,
49225,
42355,
7099,
2858,
2885,
2630,
2617,
2554,
2480,
2975,
71761,
24495,
5133,
12320,
1904,
1672,
1572,
1666,
1599,
1480,
1407,
1437,
1345,
1442,
1343,
1335,
1248,
1375,
1181,
1220,
1192,
1006,
926,
941,
947,
906,
919,
922,
895,
744,
774,
769,
716,
680,
643,
658,
631,
624,
601,
575,
565,
534,
534,
526,
490,
520,
437,
464,
454,
383,
408,
383,
354,
334,
356,
327,
298,
326,
305,
241,
256,
260,
233,
246,
252,
221,
223,
204,
188,
180,
153,
141,
162,
156,
158,
149,
140,
122,
108,
99,
106,
99,
107,
97,
73,
75,
70,
74,
59,
62,
57,
56,
44,
47,
54,
44,
35,
30,
32,
20,
26,
27,
18,
23,
18,
13,
9,
6,
11,
8,
5,
8,
6,
4,
6,
3,
0,
0,
0,
0,
1,
0,
1,
0,
0,
0,
0,
1,
0,
0,
0,
0,
0,
1,
0,
0,
0,
0,
0,
0,
0,
0,
0,
0,
1,
0,
0,
0,
0,
0,
0,
0,
0,
0,
0,
0,
0,
0,
0,
0,
0,
0,
0,
0,
0,
0,
0,
0,
0,
0,
0,
0,
0,
0,
0,
0,
0,
0,
0,
0,
0,
0,
0,
0,
0,
0,
0,
0,
0,
0,
0,
0,
0,
0,
0,
0,
0,
0,
0,
0,
0,
0,
0,
0,
0,
0,
0,
0,
0,
0,
0,
0,
0,
0,
0,
0,
0,
0,
0,
0,
0,
0,
0,
0,
0,
0,
0,
0,
0,
0,
0,
0,
0,
0,
0,
0,
0,
0,
0,
0,
0,
0,
0,
0,
0,
0,
0,
0,
0,
0,
0,
0,
0,
0,
0,
0,
0,
0,
0,
0,
0,
0,
0,
0,
0,
0,
0,
0,
#ENDOFDATA   :