File: N132962/Quantification/20 keV/MMM1/SPI MM1 Bustamite[0][4].msa
#FORMAT      : EMSA/MAS Spectral Data File
#VERSION     : 1.0
#TITLE       : SPI MM1 Bustamite[0][all]
#DATE        : 11-MAR-2025
#TIME        : 14:02
#OWNER       : Unknown
#NPOINTS     : 4096
#NCOLUMNS    : 1
#XUNITS      : eV
#YUNITS      : counts
#DATATYPE    : Y
#XPERCHAN    : 9.99778
#OFFSET      : 1.69135
#BEAMKV      : 20
#SIGNALTYPE  : EDS
#ELEVANGLE   : 35
#AZIMANGLE   : 0
#LIVETIME    : 239.884
#REALTIME    : 255.717
#PROBECUR    : 1.02902
#TAUWIND     : 0
#TDEADLYR    : 0
#TACTLYR     : 0.045
#TALWIND     : 0.025
#CHOFFSET    : 0.0
#XLABEL      : Energy (eV)
#YLABEL      : Counts
#XPOSITION   : 2.65861
#YPOSITION   : -2.68258
#ZPOSITION   : 30.9284
#EDSDET      : SD
##SPECIMEN   : SPI MM1 Bustamite[0][all]
##D2STDCMP   : Bustamite,(O:38.8357),(Si:22.7243),(Ca:16.2141),(Mn:22.2259),6.0
##DET_HASH   : 12273538-fd48-a23f-0a19-f1e6fa85caef
##CALIB_HASH : 6abaa72c-aa41-8738-0be9-f592914732f3
##WORKING    : 15.0 mm
##DET_NAME   : EDAX All
##DET_MODE   : MediumLE
#SPECTRUM    :
20,
207,
11126,
4958,
42132,
6978,
2381,
2998,
3324,
4730,
4328,
5181,
56685,
27347,
3745,
3141,
3510,
3276,
3165,
3162,
3139,
2973,
2926,
2909,
2783,
3205,
36742,
13520,
3720,
7427,
2183,
2033,
1963,
1880,
1851,
1773,
1739,
1649,
1590,
1680,
1636,
2597,
40073,
4526,
1399,
4267,
14126,
2722,
1159,
1135,
2063,
1496,
1005,
1054,
959,
910,
908,
811,
860,
797,
749,
849,
844,
728,
672,
611,
634,
635,
628,
652,
612,
550,
479,
525,
523,
469,
469,
465,
426,
420,
396,
402,
372,
346,
331,
333,
332,
314,
278,
278,
271,
245,
228,
199,
208,
182,
221,
201,
166,
170,
171,
136,
147,
154,
130,
126,
118,
114,
97,
88,
95,
92,
75,
79,
88,
67,
59,
68,
55,
47,
50,
49,
37,
34,
44,
26,
29,
27,
31,
23,
15,
21,
17,
9,
12,
12,
10,
8,
7,
8,
2,
3,
2,
2,
0,
1,
0,
3,
0,
0,
1,
1,
0,
0,
0,
1,
0,
1,
0,
0,
0,
0,
0,
0,
0,
0,
0,
0,
0,
0,
0,
0,
0,
0,
0,
0,
0,
0,
0,
0,
0,
0,
0,
0,
0,
0,
0,
0,
0,
0,
0,
0,
0,
0,
0,
0,
1,
0,
0,
0,
0,
0,
0,
0,
0,
0,
0,
0,
0,
0,
0,
0,
0,
0,
0,
0,
0,
0,
0,
0,
0,
0,
0,
0,
0,
0,
0,
0,
0,
0,
0,
0,
0,
0,
0,
0,
0,
0,
0,
0,
0,
0,
0,
0,
0,
0,
0,
0,
0,
0,
0,
0,
0,
0,
0,
0,
0,
0,
0,
0,
0,
0,
0,
0,
0,
0,
0,
0,
0,
0,
0,
0,
0,
0,
0,
0,
0,
0,
0,
0,
0,
0,
0,
0,
0,
0,
0,
0,
0,
0,
0,
0,
0,
0,
#ENDOFDATA   :