File: N132962/Quantification/20 keV/MMM1/SPI MM1 Kyanite[5][4].msa
#FORMAT      : EMSA/MAS Spectral Data File
#VERSION     : 1.0
#TITLE       : SPI MM1dup Kyanite[5][all]
#DATE        : 12-MAR-2025
#TIME        : 16:16
#OWNER       : Unknown
#NPOINTS     : 4096
#NCOLUMNS    : 1
#XUNITS      : eV
#YUNITS      : counts
#DATATYPE    : Y
#XPERCHAN    : 9.99778
#OFFSET      : 1.69135
#BEAMKV      : 20
#SIGNALTYPE  : EDS
#ELEVANGLE   : 35
#AZIMANGLE   : 0
#LIVETIME    : 239.737
#REALTIME    : 256.486
#PROBECUR    : 1.02709
#TAUWIND     : 0
#TDEADLYR    : 0
#TACTLYR     : 0.045
#TALWIND     : 0.025
#CHOFFSET    : 0.0
#XLABEL      : Energy (eV)
#YLABEL      : Counts
#XPOSITION   : -4.16113
#YPOSITION   : 4.17778
#ZPOSITION   : 31.03608
#EDSDET      : SD
##SPECIMEN   : SPI MM1dup Kyanite[5][all]
##DET_HASH   : 12273538-fd48-a23f-0a19-f1e6fa85caef
##CALIB_HASH : 6abaa72c-aa41-8738-0be9-f592914732f3
##WORKING    : 15.0 mm
##DET_NAME   : EDAX All
##DET_MODE   : MediumLE
#SPECTRUM    :
24,
187,
7560,
6464,
68375,
2139,
2597,
3328,
3921,
5102,
23228,
104422,
32843,
15889,
2641,
2100,
2417,
2166,
2122,
2132,
2094,
2481,
2127,
2315,
1857,
1832,
1766,
1717,
1656,
1601,
1552,
1437,
1412,
1426,
1356,
1291,
1262,
1129,
1097,
1120,
1089,
1052,
947,
928,
899,
991,
1129,
834,
830,
799,
811,
749,
726,
719,
673,
601,
654,
629,
579,
554,
584,
543,
487,
424,
431,
438,
419,
428,
395,
381,
383,
325,
359,
347,
363,
310,
292,
292,
279,
267,
241,
234,
255,
232,
227,
193,
202,
219,
189,
180,
170,
174,
154,
129,
131,
139,
138,
116,
133,
83,
93,
104,
73,
67,
82,
70,
72,
77,
62,
62,
66,
53,
48,
52,
42,
33,
28,
31,
26,
21,
28,
33,
20,
24,
25,
22,
18,
24,
12,
13,
15,
14,
11,
6,
4,
2,
3,
5,
3,
4,
2,
0,
3,
0,
0,
1,
0,
0,
0,
0,
0,
0,
0,
0,
0,
0,
0,
0,
0,
0,
0,
0,
0,
0,
0,
0,
0,
0,
0,
1,
0,
0,
0,
0,
0,
0,
0,
0,
0,
0,
0,
0,
0,
0,
0,
0,
0,
0,
0,
0,
0,
0,
0,
0,
0,
0,
0,
0,
0,
0,
0,
1,
0,
0,
0,
0,
0,
0,
0,
0,
0,
0,
0,
0,
0,
0,
0,
0,
0,
0,
0,
0,
0,
0,
0,
0,
0,
0,
0,
0,
0,
0,
0,
0,
0,
0,
0,
0,
0,
0,
0,
0,
0,
0,
0,
0,
0,
0,
0,
0,
0,
0,
0,
0,
0,
0,
0,
0,
0,
0,
0,
0,
0,
0,
0,
0,
0,
0,
0,
0,
0,
0,
0,
0,
0,
0,
0,
0,
0,
0,
0,
0,
0,
0,
0,
0,
0,
0,
0,
0,
0,
0,
0,
0,
#ENDOFDATA   :