File: N132962/Quantification/20 keV/MMM1/SPI MM1 Chromite[3][4].msa
#FORMAT      : EMSA/MAS Spectral Data File
#VERSION     : 1.0
#TITLE       : SPI MM1dup Chromite[3][all]
#DATE        : 12-MAR-2025
#TIME        : 14:12
#OWNER       : Unknown
#NPOINTS     : 4096
#NCOLUMNS    : 1
#XUNITS      : eV
#YUNITS      : counts
#DATATYPE    : Y
#XPERCHAN    : 9.99778
#OFFSET      : 1.69135
#BEAMKV      : 20
#SIGNALTYPE  : EDS
#ELEVANGLE   : 35
#AZIMANGLE   : 0
#LIVETIME    : 239.456
#REALTIME    : 255.794
#PROBECUR    : 1.02867
#TAUWIND     : 0
#TDEADLYR    : 0
#TACTLYR     : 0.045
#TALWIND     : 0.025
#CHOFFSET    : 0.0
#XLABEL      : Energy (eV)
#YLABEL      : Counts
#XPOSITION   : 4.22141
#YPOSITION   : -0.17041
#ZPOSITION   : 31.03608
#EDSDET      : SD
##SPECIMEN   : SPI MM1dup Chromite[3][all]
##DET_HASH   : 12273538-fd48-a23f-0a19-f1e6fa85caef
##CALIB_HASH : 6abaa72c-aa41-8738-0be9-f592914732f3
##WORKING    : 15.0 mm
##DET_NAME   : EDAX All
##DET_MODE   : MediumLE
#SPECTRUM    :
21,
224,
9656,
10598,
81984,
7446,
2389,
2880,
3625,
57514,
7867,
27445,
3594,
3774,
3503,
3287,
3326,
3400,
3376,
3273,
3209,
3143,
3043,
2860,
2881,
2756,
2957,
2563,
2439,
2353,
2325,
2174,
2382,
2195,
2081,
2166,
1949,
2129,
21737,
58098,
1897,
1825,
7767,
5886,
1373,
5358,
14495,
1378,
1201,
1273,
2679,
1894,
994,
1121,
1050,
937,
960,
860,
809,
823,
766,
759,
732,
685,
667,
679,
625,
629,
600,
612,
547,
590,
588,
512,
489,
458,
471,
483,
472,
387,
423,
421,
383,
371,
367,
358,
312,
267,
275,
287,
254,
240,
227,
243,
215,
218,
217,
200,
172,
158,
159,
137,
172,
127,
123,
142,
120,
98,
113,
109,
85,
104,
81,
78,
76,
76,
62,
61,
56,
57,
55,
49,
40,
39,
39,
31,
33,
24,
22,
14,
21,
24,
15,
15,
14,
10,
18,
4,
6,
6,
4,
7,
2,
0,
2,
1,
0,
0,
2,
0,
0,
1,
0,
1,
1,
1,
0,
0,
1,
0,
0,
0,
0,
0,
0,
0,
0,
0,
0,
1,
0,
0,
0,
0,
0,
0,
0,
1,
0,
0,
0,
0,
0,
0,
0,
0,
0,
0,
0,
0,
0,
0,
0,
0,
0,
0,
0,
0,
0,
0,
0,
0,
0,
0,
0,
0,
0,
0,
0,
0,
0,
0,
0,
0,
0,
0,
0,
0,
0,
0,
0,
0,
0,
0,
0,
0,
0,
0,
0,
0,
0,
0,
0,
0,
0,
0,
0,
0,
0,
0,
0,
0,
0,
0,
0,
0,
0,
0,
0,
0,
0,
0,
0,
0,
0,
0,
0,
0,
0,
0,
0,
0,
0,
0,
0,
0,
0,
0,
0,
0,
0,
0,
0,
0,
0,
0,
0,
0,
0,
0,
0,
0,
0,
0,
0,
0,
0,
0,
0,
0,
0,
0,
0,
0,
#ENDOFDATA   :