File: N132962/Quantification/20 keV/MMM1/SPI MM1 Cryolite[6][4].msa
#FORMAT      : EMSA/MAS Spectral Data File
#VERSION     : 1.0
#TITLE       : SPI MM1dup Cryolite[6][all]
#DATE        : 12-MAR-2025
#TIME        : 13:47
#OWNER       : Unknown
#NPOINTS     : 4096
#NCOLUMNS    : 1
#XUNITS      : eV
#YUNITS      : counts
#DATATYPE    : Y
#XPERCHAN    : 9.99778
#OFFSET      : 1.69135
#BEAMKV      : 20
#SIGNALTYPE  : EDS
#ELEVANGLE   : 35
#AZIMANGLE   : 0
#LIVETIME    : 239.981
#REALTIME    : 258.535
#PROBECUR    : 1.02627
#TAUWIND     : 0
#TDEADLYR    : 0
#TACTLYR     : 0.045
#TALWIND     : 0.025
#CHOFFSET    : 0.0
#XLABEL      : Energy (eV)
#YLABEL      : Counts
#XPOSITION   : -3.97434
#YPOSITION   : -0.62182
#ZPOSITION   : 31.03608
#EDSDET      : SD
##SPECIMEN   : SPI MM1dup Cryolite[6][all]
##D2STDCMP   : Cryolite,(F:54.2963),(Na:32.8517),(Al:12.8519)
##DET_HASH   : 12273538-fd48-a23f-0a19-f1e6fa85caef
##CALIB_HASH : 6abaa72c-aa41-8738-0be9-f592914732f3
##WORKING    : 15.0 mm
##DET_NAME   : EDAX All
##DET_MODE   : MediumLE
#SPECTRUM    :
26,
369,
9495,
4316,
13477,
330772,
2536,
39683,
9881,
2381,
7200,
26366,
3212,
2353,
2197,
2638,
2238,
2239,
2397,
2255,
2100,
2115,
2049,
1946,
1954,
1752,
1689,
1726,
1612,
1505,
1402,
1493,
1397,
1383,
1297,
1246,
1197,
1222,
1167,
1064,
998,
944,
963,
954,
926,
828,
921,
786,
786,
693,
720,
728,
673,
647,
598,
606,
585,
574,
559,
493,
531,
505,
446,
477,
423,
419,
423,
410,
396,
385,
347,
335,
323,
319,
287,
303,
268,
275,
272,
246,
228,
248,
204,
216,
210,
188,
198,
190,
189,
173,
165,
181,
131,
138,
104,
119,
111,
128,
100,
111,
105,
95,
85,
75,
74,
85,
70,
53,
66,
50,
57,
53,
47,
48,
55,
35,
39,
37,
36,
22,
19,
34,
24,
16,
24,
20,
28,
12,
9,
5,
11,
10,
8,
5,
10,
3,
3,
3,
5,
0,
3,
0,
1,
0,
0,
0,
0,
0,
0,
0,
0,
1,
0,
1,
0,
0,
0,
0,
0,
0,
0,
0,
0,
0,
0,
0,
0,
0,
0,
0,
0,
0,
0,
0,
0,
0,
0,
0,
0,
0,
0,
1,
0,
0,
0,
0,
0,
0,
0,
0,
0,
0,
0,
0,
0,
0,
0,
0,
0,
0,
0,
0,
0,
0,
0,
0,
0,
0,
0,
0,
0,
0,
0,
0,
0,
0,
0,
0,
0,
0,
0,
0,
0,
0,
0,
0,
0,
0,
0,
0,
0,
0,
0,
0,
0,
0,
0,
0,
0,
0,
0,
0,
0,
0,
0,
0,
0,
0,
0,
0,
0,
0,
0,
0,
0,
0,
0,
0,
0,
0,
0,
0,
0,
0,
0,
0,
0,
0,
0,
0,
0,
0,
0,
0,
0,
0,
0,
0,
0,
0,
0,
0,
0,
0,
0,
0,
0,
0,
0,
0,
0,
0,
0,
0,
#ENDOFDATA   :