File: N132962/Quantification/20 keV/MMM1/SPI MM1 Benitoite[1][4].msa
#FORMAT      : EMSA/MAS Spectral Data File
#VERSION     : 1.0
#TITLE       : SPI MM1 Benitoite[1][all]
#DATE        : 11-MAR-2025
#TIME        : 13:17
#OWNER       : Unknown
#NPOINTS     : 4096
#NCOLUMNS    : 1
#XUNITS      : eV
#YUNITS      : counts
#DATATYPE    : Y
#XPERCHAN    : 9.99778
#OFFSET      : 1.69135
#BEAMKV      : 20
#SIGNALTYPE  : EDS
#ELEVANGLE   : 35
#AZIMANGLE   : 0
#LIVETIME    : 239.902
#REALTIME    : 256.808
#PROBECUR    : 1.02699
#TAUWIND     : 0
#TDEADLYR    : 0
#TACTLYR     : 0.045
#TALWIND     : 0.025
#CHOFFSET    : 0.0
#XLABEL      : Energy (eV)
#YLABEL      : Counts
#XPOSITION   : -3.29675
#YPOSITION   : -4.84202
#ZPOSITION   : 30.9284
#EDSDET      : SD
##SPECIMEN   : SPI MM1 Benitoite[1][all]
##D2STDCMP   : Benitoite,(O:34.828),(Si:20.3791),(Ti:11.5776),(Ba:33.2153)
##DET_HASH   : 12273538-fd48-a23f-0a19-f1e6fa85caef
##CALIB_HASH : 6abaa72c-aa41-8738-0be9-f592914732f3
##WORKING    : 15.0 mm
##DET_NAME   : EDAX All
##DET_MODE   : MediumLE
#SPECTRUM    :
29,
271,
11598,
12006,
44072,
3516,
4148,
4748,
3878,
4199,
4542,
5443,
46400,
23381,
3857,
4087,
4453,
3985,
4045,
4196,
4225,
3778,
3949,
3833,
3767,
3727,
3470,
3420,
4534,
3356,
3150,
6312,
80710,
7076,
11177,
19494,
4598,
9195,
2393,
3283,
3393,
2731,
2380,
1952,
1848,
1921,
1926,
1682,
1609,
1603,
1609,
1612,
1476,
1507,
1379,
1374,
1369,
1327,
1327,
1265,
1188,
1180,
1163,
1115,
1161,
1042,
985,
1007,
1020,
927,
1005,
875,
844,
784,
822,
735,
759,
763,
729,
659,
617,
591,
561,
572,
572,
517,
562,
500,
475,
465,
430,
432,
385,
396,
372,
336,
357,
302,
291,
314,
265,
268,
242,
252,
237,
197,
216,
180,
201,
190,
159,
152,
140,
126,
111,
125,
107,
108,
98,
111,
95,
65,
84,
68,
76,
56,
44,
52,
48,
44,
47,
38,
36,
33,
23,
26,
15,
17,
14,
9,
9,
4,
3,
4,
1,
2,
1,
1,
0,
0,
1,
0,
0,
1,
0,
0,
0,
0,
1,
0,
0,
1,
0,
0,
0,
0,
0,
0,
0,
0,
0,
0,
0,
0,
0,
0,
0,
0,
0,
0,
0,
0,
1,
0,
0,
0,
0,
0,
1,
0,
0,
0,
0,
1,
0,
0,
0,
0,
0,
0,
0,
0,
0,
0,
0,
0,
0,
0,
0,
0,
0,
0,
0,
0,
0,
0,
0,
0,
0,
0,
0,
0,
0,
0,
0,
0,
0,
0,
0,
0,
0,
0,
0,
0,
0,
0,
0,
0,
0,
0,
0,
0,
0,
0,
0,
0,
0,
0,
0,
0,
0,
0,
0,
0,
0,
0,
0,
0,
0,
0,
0,
0,
0,
0,
0,
0,
0,
0,
0,
0,
0,
0,
0,
0,
0,
0,
0,
0,
0,
0,
0,
0,
0,
0,
0,
0,
0,
0,
0,
0,
0,
0,
0,
0,
#ENDOFDATA   :