File: N132962/Quantification/20 keV/MMM1/SPI MM1 Arsenopyrite[0][4].msa
#FORMAT      : EMSA/MAS Spectral Data File
#VERSION     : 1.0
#TITLE       : SPI MM1 Arsenopyrite[0][all]
#DATE        : 11-MAR-2025
#TIME        : 13:34
#OWNER       : Unknown
#NPOINTS     : 4096
#NCOLUMNS    : 1
#XUNITS      : eV
#YUNITS      : counts
#DATATYPE    : Y
#XPERCHAN    : 9.99778
#OFFSET      : 1.69135
#BEAMKV      : 20
#SIGNALTYPE  : EDS
#ELEVANGLE   : 35
#AZIMANGLE   : 0
#LIVETIME    : 239.821
#REALTIME    : 260.7888
#PROBECUR    : 1.02853
#TAUWIND     : 0
#TDEADLYR    : 0
#TACTLYR     : 0.045
#TALWIND     : 0.025
#CHOFFSET    : 0.0
#XLABEL      : Energy (eV)
#YLABEL      : Counts
#XPOSITION   : 2.16622
#YPOSITION   : -5.01231
#ZPOSITION   : 30.9284
#EDSDET      : SD
##SPECIMEN   : SPI MM1 Arsenopyrite[0][all]
##D2STDCMP   : Arsenopyrite,(S:19.6897),(Fe:34.2972),(As:46.0131),6.0
##DET_HASH   : 12273538-fd48-a23f-0a19-f1e6fa85caef
##CALIB_HASH : 6abaa72c-aa41-8738-0be9-f592914732f3
##WORKING    : 15.0 mm
##DET_NAME   : EDAX All
##DET_MODE   : MediumLE
#SPECTRUM    :
20,
381,
11463,
3390,
11156,
57617,
4968,
5532,
14849,
147571,
10659,
4317,
4556,
4819,
4669,
4917,
33174,
26655,
7701,
4280,
4165,
4153,
4125,
4144,
3919,
4174,
4256,
3859,
3973,
3660,
3726,
3521,
3456,
3696,
3340,
3135,
3076,
3071,
3056,
2907,
2832,
2719,
2644,
2584,
2762,
19654,
57403,
2947,
2165,
2490,
8420,
5234,
1824,
1867,
1832,
1819,
1693,
1636,
1561,
1589,
1492,
1403,
1445,
1357,
1340,
1285,
1215,
1197,
1137,
1070,
1092,
1091,
1050,
1089,
2559,
17694,
6052,
952,
899,
877,
863,
786,
852,
1819,
2714,
836,
628,
569,
595,
557,
525,
555,
537,
450,
447,
421,
384,
402,
397,
336,
377,
328,
332,
302,
300,
279,
221,
277,
215,
191,
208,
196,
206,
181,
180,
144,
155,
144,
136,
137,
105,
138,
97,
90,
73,
75,
73,
81,
61,
59,
59,
40,
42,
32,
38,
24,
19,
23,
13,
6,
8,
4,
6,
2,
1,
2,
2,
4,
3,
6,
2,
0,
2,
2,
2,
0,
1,
1,
1,
3,
1,
0,
3,
0,
2,
0,
0,
0,
0,
0,
0,
0,
1,
0,
0,
0,
0,
0,
0,
1,
0,
0,
0,
0,
0,
0,
1,
0,
0,
0,
0,
0,
1,
0,
0,
0,
1,
0,
0,
0,
0,
0,
0,
0,
0,
0,
0,
0,
0,
0,
0,
0,
0,
0,
0,
0,
0,
0,
0,
0,
0,
0,
0,
0,
0,
0,
0,
0,
0,
0,
0,
0,
0,
0,
0,
0,
0,
0,
0,
0,
0,
0,
0,
0,
0,
0,
0,
0,
0,
0,
0,
0,
0,
0,
0,
0,
0,
0,
0,
0,
0,
0,
0,
0,
0,
0,
0,
0,
0,
0,
0,
0,
0,
0,
0,
0,
0,
0,
0,
0,
0,
0,
0,
0,
0,
0,
0,
0,
0,
0,
0,
0,
0,
0,
#ENDOFDATA   :