File: N132962/Quantification/20 keV/MMM1/SPI MM1 Crocoite[4][4].msa
#FORMAT      : EMSA/MAS Spectral Data File
#VERSION     : 1.0
#TITLE       : SPI MM1dup Crocoite[4][all]
#DATE        : 12-MAR-2025
#TIME        : 13:54
#OWNER       : Unknown
#NPOINTS     : 4096
#NCOLUMNS    : 1
#XUNITS      : eV
#YUNITS      : counts
#DATATYPE    : Y
#XPERCHAN    : 9.99778
#OFFSET      : 1.69135
#BEAMKV      : 20
#SIGNALTYPE  : EDS
#ELEVANGLE   : 35
#AZIMANGLE   : 0
#LIVETIME    : 239.841
#REALTIME    : 261.99
#PROBECUR    : 1.02627
#TAUWIND     : 0
#TDEADLYR    : 0
#TACTLYR     : 0.045
#TALWIND     : 0.025
#CHOFFSET    : 0.0
#XLABEL      : Energy (eV)
#YLABEL      : Counts
#XPOSITION   : -1.08272
#YPOSITION   : -0.62904
#ZPOSITION   : 31.03608
#EDSDET      : SD
##SPECIMEN   : SPI MM1dup Crocoite[4][all]
##DET_HASH   : 12273538-fd48-a23f-0a19-f1e6fa85caef
##CALIB_HASH : 6abaa72c-aa41-8738-0be9-f592914732f3
##WORKING    : 15.0 mm
##DET_NAME   : EDAX All
##DET_MODE   : MediumLE
#SPECTRUM    :
25,
748,
17916,
6659,
30071,
6348,
5363,
5923,
6290,
7455,
7966,
8339,
9230,
18092,
8586,
8974,
17283,
138241,
23425,
11321,
4984,
5530,
6773,
4989,
4789,
4845,
4889,
4736,
4669,
4573,
4513,
4511,
4346,
4447,
4543,
4290,
4113,
4182,
14560,
32585,
3962,
3885,
7054,
6050,
3434,
3423,
3746,
3271,
3155,
3060,
3026,
2960,
2949,
3038,
2893,
2686,
2692,
2572,
2492,
2432,
2374,
2438,
2260,
2217,
2209,
2498,
2460,
2054,
2015,
1933,
1913,
1844,
1752,
1775,
2639,
10049,
5537,
1665,
1490,
1504,
1426,
1437,
1291,
1235,
1203,
1224,
1132,
1280,
1197,
1644,
4536,
1964,
1072,
1101,
923,
824,
709,
762,
634,
647,
668,
585,
625,
595,
538,
734,
679,
483,
484,
500,
400,
429,
305,
348,
327,
291,
273,
233,
225,
236,
235,
227,
231,
183,
180,
165,
149,
152,
144,
124,
107,
93,
87,
80,
78,
53,
54,
51,
49,
36,
25,
11,
6,
2,
2,
3,
3,
6,
4,
2,
2,
4,
4,
4,
0,
0,
0,
2,
1,
2,
0,
0,
3,
1,
1,
0,
1,
2,
1,
1,
1,
1,
2,
2,
2,
0,
1,
2,
0,
0,
3,
0,
0,
0,
2,
2,
1,
1,
2,
1,
0,
1,
0,
0,
1,
0,
0,
0,
0,
0,
0,
0,
0,
0,
1,
0,
1,
0,
0,
0,
0,
0,
0,
0,
0,
1,
0,
0,
0,
0,
0,
0,
0,
0,
0,
0,
0,
0,
0,
0,
0,
0,
0,
0,
0,
0,
0,
0,
0,
0,
0,
0,
0,
0,
0,
0,
0,
0,
0,
0,
0,
0,
0,
0,
0,
0,
0,
0,
0,
0,
0,
0,
0,
0,
0,
0,
0,
0,
0,
0,
0,
0,
0,
0,
0,
0,
0,
0,
0,
0,
0,
0,
0,
0,
0,
0,
0,
0,
0,
0,
0,
0,
0,
0,
#ENDOFDATA   :