File: N132962/Quantification/20 keV/MMM1/SPI MM1 Chromite[1][4].msa
#FORMAT      : EMSA/MAS Spectral Data File
#VERSION     : 1.0
#TITLE       : SPI MM1dup Chromite[1][all]
#DATE        : 12-MAR-2025
#TIME        : 14:10
#OWNER       : Unknown
#NPOINTS     : 4096
#NCOLUMNS    : 1
#XUNITS      : eV
#YUNITS      : counts
#DATATYPE    : Y
#XPERCHAN    : 9.99778
#OFFSET      : 1.69135
#BEAMKV      : 20
#SIGNALTYPE  : EDS
#ELEVANGLE   : 35
#AZIMANGLE   : 0
#LIVETIME    : 239.986
#REALTIME    : 256.301
#PROBECUR    : 1.02627
#TAUWIND     : 0
#TDEADLYR    : 0
#TACTLYR     : 0.045
#TALWIND     : 0.025
#CHOFFSET    : 0.0
#XLABEL      : Energy (eV)
#YLABEL      : Counts
#XPOSITION   : 4.29382
#YPOSITION   : -0.22923
#ZPOSITION   : 31.03608
#EDSDET      : SD
##SPECIMEN   : SPI MM1dup Chromite[1][all]
##DET_HASH   : 12273538-fd48-a23f-0a19-f1e6fa85caef
##CALIB_HASH : 6abaa72c-aa41-8738-0be9-f592914732f3
##WORKING    : 15.0 mm
##DET_NAME   : EDAX All
##DET_MODE   : MediumLE
#SPECTRUM    :
23,
225,
10187,
10534,
82527,
7605,
2486,
2877,
3693,
57265,
7824,
27305,
3516,
3631,
3473,
3375,
3360,
3335,
3370,
3338,
3183,
3074,
2998,
2836,
2876,
2814,
3076,
2508,
2397,
2365,
2304,
2278,
2461,
2171,
2049,
2146,
1980,
2039,
21827,
57740,
1945,
1759,
7748,
5900,
1325,
5333,
14537,
1337,
1222,
1265,
2741,
1868,
988,
1191,
1036,
862,
825,
830,
819,
917,
791,
791,
808,
682,
673,
692,
657,
642,
625,
621,
570,
560,
528,
537,
526,
509,
464,
494,
442,
367,
354,
408,
389,
382,
373,
353,
322,
301,
268,
289,
262,
265,
222,
232,
237,
200,
221,
193,
205,
190,
143,
150,
153,
142,
114,
142,
112,
131,
105,
97,
88,
80,
85,
93,
65,
58,
61,
60,
53,
61,
35,
57,
51,
45,
36,
28,
29,
30,
27,
25,
22,
18,
18,
17,
7,
13,
11,
6,
11,
5,
4,
6,
2,
0,
0,
0,
0,
1,
0,
1,
0,
1,
0,
0,
0,
0,
0,
0,
1,
0,
0,
0,
0,
0,
0,
0,
0,
0,
0,
0,
1,
0,
0,
0,
0,
0,
0,
0,
0,
0,
0,
0,
0,
0,
0,
0,
0,
0,
0,
0,
0,
0,
0,
0,
0,
0,
0,
0,
0,
1,
0,
0,
0,
0,
0,
0,
0,
0,
0,
0,
0,
0,
0,
0,
0,
0,
0,
0,
0,
0,
0,
0,
0,
0,
0,
0,
0,
0,
0,
0,
0,
0,
0,
0,
0,
0,
0,
0,
0,
0,
0,
0,
0,
0,
0,
0,
0,
0,
0,
0,
0,
0,
0,
0,
0,
0,
0,
0,
0,
0,
0,
0,
0,
0,
0,
0,
0,
0,
0,
0,
0,
0,
0,
0,
0,
0,
0,
0,
0,
0,
0,
0,
0,
0,
0,
0,
0,
0,
0,
0,
0,
0,
0,
0,
#ENDOFDATA   :