File: N132962/Quantification/20 keV/MMM1/SPI MM1 Chalcopyrite[2][4].msa
#FORMAT      : EMSA/MAS Spectral Data File
#VERSION     : 1.0
#TITLE       : SPI MM1 Chalcopyrite[2][all]
#DATE        : 11-MAR-2025
#TIME        : 14:29
#OWNER       : Unknown
#NPOINTS     : 4096
#NCOLUMNS    : 1
#XUNITS      : eV
#YUNITS      : counts
#DATATYPE    : Y
#XPERCHAN    : 9.99778
#OFFSET      : 1.69135
#BEAMKV      : 20
#SIGNALTYPE  : EDS
#ELEVANGLE   : 35
#AZIMANGLE   : 0
#LIVETIME    : 239.885
#REALTIME    : 260.452
#PROBECUR    : 1.02809
#TAUWIND     : 0
#TDEADLYR    : 0
#TACTLYR     : 0.045
#TALWIND     : 0.025
#CHOFFSET    : 0.0
#XLABEL      : Energy (eV)
#YLABEL      : Counts
#XPOSITION   : -4.90381
#YPOSITION   : -3.94327
#ZPOSITION   : 30.9284
#EDSDET      : SD
##SPECIMEN   : SPI MM1 Chalcopyrite[2][all]
##D2STDCMP   : Chalcopyrite,(S:34.9407),(Fe:30.4314),(Cu:34.6279),4.2
##DET_HASH   : 12273538-fd48-a23f-0a19-f1e6fa85caef
##CALIB_HASH : 6abaa72c-aa41-8738-0be9-f592914732f3
##WORKING    : 15.0 mm
##DET_NAME   : EDAX All
##DET_MODE   : MediumLE
#SPECTRUM    :
21,
451,
10733,
3238,
13327,
42081,
11643,
28684,
3418,
4042,
4603,
4952,
5568,
5803,
5213,
5834,
66426,
51808,
10822,
3795,
3693,
3842,
3847,
3968,
3639,
3567,
3413,
3510,
3310,
3276,
3244,
3175,
3047,
3479,
2973,
2859,
2769,
2606,
2553,
2576,
2504,
2355,
2420,
2297,
2468,
17412,
50865,
2505,
1869,
2085,
7441,
4552,
1630,
1683,
1453,
1523,
1855,
25309,
16821,
1452,
1368,
1286,
1424,
3510,
4243,
1079,
1025,
1039,
944,
959,
945,
935,
898,
926,
945,
795,
759,
737,
697,
705,
660,
617,
597,
615,
596,
572,
527,
504,
431,
496,
447,
458,
416,
391,
385,
380,
379,
352,
320,
312,
286,
274,
296,
277,
269,
242,
225,
212,
212,
176,
207,
175,
150,
126,
156,
143,
108,
115,
108,
112,
94,
81,
89,
81,
82,
55,
70,
56,
54,
44,
41,
47,
33,
30,
34,
28,
23,
23,
10,
17,
6,
6,
4,
1,
3,
0,
2,
1,
0,
2,
0,
3,
1,
1,
0,
0,
1,
1,
1,
0,
0,
0,
0,
0,
0,
0,
0,
0,
1,
1,
2,
0,
1,
0,
0,
0,
0,
0,
0,
1,
1,
0,
0,
1,
0,
0,
0,
0,
0,
0,
0,
0,
0,
0,
0,
0,
1,
0,
0,
0,
0,
0,
0,
0,
0,
0,
0,
0,
0,
0,
0,
0,
0,
0,
0,
0,
0,
0,
0,
0,
0,
0,
0,
0,
0,
0,
0,
0,
0,
0,
0,
0,
0,
0,
0,
0,
0,
0,
0,
0,
0,
0,
0,
0,
0,
0,
0,
0,
0,
0,
0,
0,
0,
0,
0,
0,
0,
0,
0,
0,
0,
0,
0,
0,
0,
0,
0,
0,
0,
0,
0,
0,
0,
0,
0,
0,
0,
0,
0,
0,
0,
0,
0,
0,
0,
0,
0,
0,
0,
0,
0,
0,
0,
0,
#ENDOFDATA   :