File: N132962/Quantification/20 keV/MMM1/SPI MM1 Arsenopyrite[2][4].msa
#FORMAT      : EMSA/MAS Spectral Data File
#VERSION     : 1.0
#TITLE       : SPI MM1 Arsenopyrite[2][all]
#DATE        : 11-MAR-2025
#TIME        : 13:37
#OWNER       : Unknown
#NPOINTS     : 4096
#NCOLUMNS    : 1
#XUNITS      : eV
#YUNITS      : counts
#DATATYPE    : Y
#XPERCHAN    : 9.99778
#OFFSET      : 1.69135
#BEAMKV      : 20
#SIGNALTYPE  : EDS
#ELEVANGLE   : 35
#AZIMANGLE   : 0
#LIVETIME    : 239.8424
#REALTIME    : 260.782
#PROBECUR    : 1.02853
#TAUWIND     : 0
#TDEADLYR    : 0
#TACTLYR     : 0.045
#TALWIND     : 0.025
#CHOFFSET    : 0.0
#XLABEL      : Energy (eV)
#YLABEL      : Counts
#XPOSITION   : 2.19181
#YPOSITION   : -5.04083
#ZPOSITION   : 30.9284
#EDSDET      : SD
##SPECIMEN   : SPI MM1 Arsenopyrite[2][all]
##D2STDCMP   : Arsenopyrite,(S:19.6897),(Fe:34.2972),(As:46.0131),6.0
##DET_HASH   : 12273538-fd48-a23f-0a19-f1e6fa85caef
##CALIB_HASH : 6abaa72c-aa41-8738-0be9-f592914732f3
##WORKING    : 15.0 mm
##DET_NAME   : EDAX All
##DET_MODE   : MediumLE
#SPECTRUM    :
19,
367,
11576,
3329,
11286,
58054,
4990,
5445,
14419,
143901,
10371,
4165,
4575,
4914,
4667,
5069,
34005,
27251,
7727,
4333,
4319,
4255,
4255,
4063,
4097,
3999,
4078,
3848,
3784,
3650,
3656,
3615,
3507,
3544,
3194,
3208,
3081,
3083,
2933,
2900,
2702,
2742,
2638,
2597,
2718,
19809,
57422,
2961,
2199,
2414,
8568,
5290,
1883,
1920,
1781,
1794,
1659,
1574,
1552,
1532,
1501,
1409,
1450,
1425,
1314,
1325,
1262,
1266,
1214,
1146,
1101,
1145,
1137,
1071,
2516,
17434,
5829,
884,
883,
808,
823,
785,
817,
1806,
2666,
860,
634,
582,
585,
560,
536,
533,
539,
481,
479,
392,
430,
371,
385,
331,
382,
359,
329,
281,
313,
267,
241,
242,
235,
214,
205,
201,
199,
186,
172,
172,
153,
149,
131,
107,
103,
121,
121,
95,
91,
71,
65,
61,
55,
62,
50,
42,
46,
42,
33,
29,
22,
28,
20,
13,
3,
7,
3,
2,
0,
2,
2,
5,
1,
2,
3,
4,
1,
1,
0,
2,
3,
0,
0,
2,
0,
0,
0,
1,
2,
0,
1,
3,
0,
0,
1,
1,
1,
1,
1,
0,
0,
0,
0,
0,
0,
0,
1,
0,
0,
0,
0,
0,
0,
0,
0,
0,
0,
0,
0,
0,
0,
0,
0,
1,
0,
0,
0,
0,
0,
0,
0,
0,
0,
0,
0,
0,
0,
0,
0,
0,
0,
0,
0,
0,
1,
0,
0,
0,
0,
0,
0,
0,
0,
0,
0,
0,
0,
0,
0,
0,
0,
0,
0,
0,
0,
0,
0,
0,
0,
0,
0,
0,
0,
0,
0,
0,
0,
0,
0,
0,
0,
0,
0,
0,
0,
0,
0,
0,
0,
0,
0,
0,
0,
0,
0,
0,
0,
0,
0,
0,
0,
0,
0,
0,
0,
0,
0,
0,
0,
0,
0,
0,
0,
0,
0,
0,
0,
0,
#ENDOFDATA   :