File: N132962/Quantification/20 keV/MMM1/SPI MM1 Andradite[7][4].msa
#FORMAT      : EMSA/MAS Spectral Data File
#VERSION     : 1.0
#TITLE       : SPI MM1 Andradite[7][all]
#DATE        : 11-MAR-2025
#TIME        : 13:15
#OWNER       : Unknown
#NPOINTS     : 4096
#NCOLUMNS    : 1
#XUNITS      : eV
#YUNITS      : counts
#DATATYPE    : Y
#XPERCHAN    : 9.99778
#OFFSET      : 1.69135
#BEAMKV      : 20
#SIGNALTYPE  : EDS
#ELEVANGLE   : 35
#AZIMANGLE   : 0
#LIVETIME    : 239.8832
#REALTIME    : 255.398
#PROBECUR    : 1.02699
#TAUWIND     : 0
#TDEADLYR    : 0
#TACTLYR     : 0.045
#TALWIND     : 0.025
#CHOFFSET    : 0.0
#XLABEL      : Energy (eV)
#YLABEL      : Counts
#XPOSITION   : -2.21484
#YPOSITION   : -8.00899
#ZPOSITION   : 30.9284
#EDSDET      : SD
##SPECIMEN   : SPI MM1 Andradite[7][all]
##D2STDCMP   : Andradite,(O:37.7805),(Si:16.5802),(Ca:23.6603),(Fe:21.979),3.86
##DET_HASH   : 12273538-fd48-a23f-0a19-f1e6fa85caef
##CALIB_HASH : 6abaa72c-aa41-8738-0be9-f592914732f3
##WORKING    : 15.0 mm
##DET_NAME   : EDAX All
##DET_MODE   : MediumLE
#SPECTRUM    :
27,
194,
12845,
4035,
31418,
14067,
2507,
2828,
3343,
3937,
5560,
11007,
42403,
21087,
4642,
3187,
3791,
3414,
3300,
3276,
3185,
3172,
2988,
3001,
2857,
3282,
61765,
21113,
5012,
11155,
2137,
1931,
1977,
2063,
1892,
1764,
1671,
1713,
1648,
1673,
1483,
1508,
2006,
1363,
1469,
9325,
26404,
1556,
1214,
1291,
3959,
2526,
999,
1017,
1005,
926,
911,
802,
891,
811,
699,
721,
704,
734,
665,
657,
639,
616,
647,
633,
564,
517,
595,
560,
509,
463,
442,
443,
455,
413,
407,
372,
344,
351,
334,
332,
352,
295,
305,
284,
273,
261,
265,
232,
209,
195,
197,
172,
169,
177,
157,
151,
139,
152,
121,
141,
130,
109,
102,
91,
121,
89,
75,
70,
65,
61,
77,
65,
53,
43,
52,
47,
37,
29,
39,
30,
38,
28,
17,
33,
19,
23,
13,
13,
8,
10,
11,
8,
9,
10,
5,
0,
1,
0,
0,
0,
0,
2,
0,
0,
0,
0,
1,
0,
0,
0,
0,
0,
0,
0,
0,
0,
0,
0,
0,
0,
0,
0,
1,
0,
0,
0,
0,
0,
0,
0,
0,
0,
0,
0,
0,
0,
0,
1,
0,
0,
0,
0,
0,
0,
0,
0,
0,
0,
0,
0,
0,
0,
0,
0,
0,
0,
0,
0,
0,
0,
0,
1,
0,
0,
0,
0,
0,
0,
0,
0,
0,
0,
0,
0,
0,
0,
0,
0,
0,
0,
0,
0,
0,
0,
0,
0,
0,
0,
0,
0,
0,
0,
0,
0,
0,
0,
0,
0,
0,
0,
0,
0,
0,
0,
0,
0,
0,
0,
0,
0,
0,
0,
0,
0,
0,
0,
0,
0,
0,
0,
0,
0,
0,
0,
0,
0,
0,
0,
0,
0,
0,
0,
0,
0,
0,
0,
0,
0,
0,
0,
0,
0,
0,
0,
0,
0,
0,
0,
#ENDOFDATA   :