File: N132962/Quantification/20 keV/MMM1/SPI MM1 Jadeite[7][4].msa
#FORMAT      : EMSA/MAS Spectral Data File
#VERSION     : 1.0
#TITLE       : SPI MM1dup Jadeite[7][all]
#DATE        : 12-MAR-2025
#TIME        : 16:37
#OWNER       : Unknown
#NPOINTS     : 4096
#NCOLUMNS    : 1
#XUNITS      : eV
#YUNITS      : counts
#DATATYPE    : Y
#XPERCHAN    : 9.99778
#OFFSET      : 1.69135
#BEAMKV      : 20
#SIGNALTYPE  : EDS
#ELEVANGLE   : 35
#AZIMANGLE   : 0
#LIVETIME    : 239.772
#REALTIME    : 255.531
#PROBECUR    : 1.02709
#TAUWIND     : 0
#TDEADLYR    : 0
#TACTLYR     : 0.045
#TALWIND     : 0.025
#CHOFFSET    : 0.0
#XLABEL      : Energy (eV)
#YLABEL      : Counts
#XPOSITION   : 0.9548
#YPOSITION   : 4.34766
#ZPOSITION   : 31.03608
#EDSDET      : SD
##SPECIMEN   : SPI MM1dup Jadeite[7][all]
##D2STDCMP   : Jadeite,(O:47.4904),(Na:11.3733),(Al:13.348),(Si:27.7883),5.0
##DET_HASH   : 12273538-fd48-a23f-0a19-f1e6fa85caef
##CALIB_HASH : 6abaa72c-aa41-8738-0be9-f592914732f3
##WORKING    : 15.0 mm
##DET_NAME   : EDAX All
##DET_MODE   : MediumLE
#SPECTRUM    :
22,
169,
7741,
6112,
66127,
2025,
2898,
17625,
6140,
4364,
10445,
39423,
60291,
28564,
2275,
2139,
2608,
2071,
2227,
2030,
2201,
2115,
1959,
2200,
1853,
2064,
2066,
1761,
1626,
1655,
1530,
1432,
1393,
1407,
1317,
1312,
1165,
1271,
1160,
1119,
1116,
963,
973,
979,
1003,
910,
951,
822,
832,
802,
788,
736,
707,
728,
642,
656,
607,
611,
559,
549,
543,
494,
499,
470,
478,
399,
425,
425,
424,
397,
347,
358,
386,
311,
268,
314,
302,
265,
270,
259,
252,
280,
223,
247,
196,
214,
197,
182,
178,
166,
166,
137,
160,
157,
155,
142,
139,
110,
130,
101,
94,
101,
93,
79,
92,
83,
88,
72,
78,
75,
52,
45,
53,
69,
37,
46,
42,
27,
31,
32,
24,
24,
26,
21,
25,
19,
26,
16,
13,
11,
10,
16,
6,
7,
6,
6,
4,
6,
4,
1,
0,
2,
1,
0,
0,
0,
0,
0,
0,
0,
0,
0,
0,
1,
0,
0,
0,
0,
0,
0,
0,
0,
0,
0,
0,
0,
0,
0,
0,
0,
0,
0,
0,
0,
0,
0,
0,
1,
0,
0,
0,
0,
0,
0,
0,
0,
1,
0,
0,
0,
0,
0,
0,
0,
0,
0,
0,
0,
0,
0,
0,
0,
0,
0,
0,
0,
0,
0,
0,
0,
0,
0,
0,
0,
0,
0,
0,
0,
0,
0,
0,
0,
0,
0,
0,
0,
0,
0,
0,
0,
0,
0,
0,
0,
0,
0,
0,
0,
0,
0,
0,
0,
0,
0,
0,
0,
0,
0,
0,
0,
0,
0,
0,
0,
0,
0,
0,
0,
0,
0,
0,
0,
0,
0,
0,
0,
0,
0,
0,
0,
0,
0,
0,
0,
0,
0,
0,
0,
0,
0,
0,
0,
0,
0,
0,
0,
0,
0,
0,
0,
0,
0,
0,
0,
#ENDOFDATA   :