File: N132962/Quantification/20 keV/MMM1/SPI MM1 Dolomite[6][4].msa
#FORMAT      : EMSA/MAS Spectral Data File
#VERSION     : 1.0
#TITLE       : SPI MM1dup Dolomite[6][all]
#DATE        : 12-MAR-2025
#TIME        : 15:51
#OWNER       : Unknown
#NPOINTS     : 4096
#NCOLUMNS    : 1
#XUNITS      : eV
#YUNITS      : counts
#DATATYPE    : Y
#XPERCHAN    : 9.99778
#OFFSET      : 1.69135
#BEAMKV      : 20
#SIGNALTYPE  : EDS
#ELEVANGLE   : 35
#AZIMANGLE   : 0
#LIVETIME    : 239.964
#REALTIME    : 250.855
#PROBECUR    : 1.02695
#TAUWIND     : 0
#TDEADLYR    : 0
#TACTLYR     : 0.045
#TALWIND     : 0.025
#CHOFFSET    : 0.0
#XLABEL      : Energy (eV)
#YLABEL      : Counts
#XPOSITION   : -0.11199
#YPOSITION   : 2.0541
#ZPOSITION   : 31.03608
#EDSDET      : SD
##SPECIMEN   : SPI MM1dup Dolomite[6][all]
##DET_HASH   : 12273538-fd48-a23f-0a19-f1e6fa85caef
##CALIB_HASH : 6abaa72c-aa41-8738-0be9-f592914732f3
##WORKING    : 15.0 mm
##DET_NAME   : EDAX All
##DET_MODE   : MediumLE
#SPECTRUM    :
36,
211,
27101,
3701,
35930,
1680,
2076,
2488,
3509,
87603,
2946,
3052,
3298,
3485,
3900,
2810,
2913,
2828,
2639,
2481,
2460,
2349,
2277,
2218,
2035,
2497,
55435,
18988,
3958,
9507,
1495,
1354,
1282,
1305,
1235,
1223,
1221,
1116,
1056,
1050,
1011,
1072,
955,
922,
949,
952,
1021,
788,
819,
705,
762,
704,
711,
735,
649,
564,
657,
523,
533,
529,
549,
453,
492,
495,
437,
409,
420,
400,
392,
342,
358,
328,
367,
316,
314,
290,
300,
290,
303,
243,
254,
241,
258,
248,
207,
171,
199,
178,
208,
186,
155,
134,
150,
129,
115,
127,
140,
122,
116,
120,
83,
90,
84,
63,
79,
89,
68,
59,
47,
66,
51,
52,
43,
45,
36,
44,
35,
35,
36,
30,
25,
25,
27,
26,
18,
22,
15,
12,
15,
11,
11,
10,
6,
9,
7,
7,
5,
2,
1,
1,
1,
1,
0,
0,
1,
0,
2,
0,
0,
0,
0,
0,
0,
0,
0,
0,
0,
0,
0,
0,
1,
0,
0,
0,
0,
0,
0,
0,
0,
0,
1,
0,
0,
0,
0,
0,
0,
0,
0,
0,
0,
0,
0,
0,
0,
0,
0,
0,
0,
0,
0,
0,
0,
0,
0,
0,
0,
0,
0,
0,
0,
0,
0,
0,
0,
0,
0,
0,
0,
0,
0,
0,
0,
0,
0,
0,
0,
0,
0,
0,
0,
0,
0,
0,
0,
0,
0,
0,
0,
0,
0,
0,
0,
0,
0,
0,
0,
0,
0,
0,
0,
0,
0,
0,
0,
0,
0,
0,
0,
0,
0,
0,
0,
0,
0,
0,
0,
0,
0,
0,
0,
0,
0,
0,
0,
0,
0,
0,
0,
0,
0,
0,
0,
0,
0,
0,
0,
0,
0,
0,
0,
0,
0,
0,
0,
0,
0,
0,
0,
0,
0,
0,
0,
0,
#ENDOFDATA   :