File: N132962/Quantification/20 keV/MMM1/SPI MM1 Kaersutite[4][4].msa
#FORMAT      : EMSA/MAS Spectral Data File
#VERSION     : 1.0
#TITLE       : SPI MM1dup Kaersutite[4][all]
#DATE        : 12-MAR-2025
#TIME        : 16:24
#OWNER       : Unknown
#NPOINTS     : 4096
#NCOLUMNS    : 1
#XUNITS      : eV
#YUNITS      : counts
#DATATYPE    : Y
#XPERCHAN    : 9.99778
#OFFSET      : 1.69135
#BEAMKV      : 20
#SIGNALTYPE  : EDS
#ELEVANGLE   : 35
#AZIMANGLE   : 0
#LIVETIME    : 239.842
#REALTIME    : 254.4407
#PROBECUR    : 1.02709
#TAUWIND     : 0
#TDEADLYR    : 0
#TACTLYR     : 0.045
#TALWIND     : 0.025
#CHOFFSET    : 0.0
#XLABEL      : Energy (eV)
#YLABEL      : Counts
#XPOSITION   : -1.60215
#YPOSITION   : 3.57365
#ZPOSITION   : 31.03608
#EDSDET      : SD
##SPECIMEN   : SPI MM1dup Kaersutite[4][all]
##DET_HASH   : 12273538-fd48-a23f-0a19-f1e6fa85caef
##CALIB_HASH : 6abaa72c-aa41-8738-0be9-f592914732f3
##WORKING    : 15.0 mm
##DET_NAME   : EDAX All
##DET_MODE   : MediumLE
#SPECTRUM    :
27,
170,
10662,
5721,
42658,
8514,
2587,
4897,
4263,
53840,
6612,
20109,
41737,
20913,
3142,
2734,
2999,
2756,
2746,
2805,
2707,
2600,
2469,
2998,
4986,
2624,
22224,
8470,
2717,
4961,
1830,
1857,
10183,
2669,
1656,
2736,
1709,
1446,
1320,
1419,
1303,
1230,
1484,
1186,
1069,
5018,
13351,
1156,
995,
1014,
2394,
1534,
776,
815,
855,
760,
749,
721,
652,
636,
691,
675,
627,
575,
579,
559,
528,
530,
479,
509,
427,
467,
401,
433,
443,
348,
377,
365,
360,
340,
319,
274,
289,
299,
287,
267,
247,
227,
228,
223,
229,
209,
191,
186,
175,
180,
158,
149,
140,
134,
129,
128,
119,
113,
100,
97,
81,
86,
90,
82,
54,
68,
70,
64,
52,
48,
56,
52,
41,
35,
43,
33,
31,
30,
23,
33,
27,
17,
21,
15,
13,
11,
8,
8,
8,
12,
10,
6,
5,
2,
1,
4,
0,
1,
0,
0,
0,
0,
0,
0,
0,
0,
0,
1,
0,
0,
0,
0,
0,
0,
0,
0,
0,
0,
0,
0,
0,
0,
0,
0,
0,
0,
0,
0,
0,
0,
0,
0,
0,
1,
0,
0,
0,
0,
0,
0,
0,
0,
0,
0,
0,
0,
0,
0,
0,
0,
1,
0,
0,
0,
0,
0,
0,
0,
0,
0,
0,
0,
0,
0,
0,
0,
0,
0,
0,
0,
0,
0,
0,
0,
0,
0,
0,
0,
0,
0,
0,
0,
0,
0,
0,
0,
0,
0,
0,
0,
0,
0,
0,
0,
0,
0,
0,
0,
0,
0,
0,
0,
0,
0,
0,
0,
0,
0,
0,
0,
0,
0,
0,
0,
0,
0,
0,
0,
0,
0,
0,
0,
0,
0,
0,
0,
0,
0,
0,
0,
0,
0,
0,
0,
0,
0,
0,
0,
0,
0,
0,
0,
0,
0,
0,
0,
0,
0,
#ENDOFDATA   :