File: N132962/Quantification/20 keV/MMM1/SPI MM1 Bustamite[1][4].msa
#FORMAT      : EMSA/MAS Spectral Data File
#VERSION     : 1.0
#TITLE       : SPI MM1 Bustamite[1][all]
#DATE        : 11-MAR-2025
#TIME        : 14:03
#OWNER       : Unknown
#NPOINTS     : 4096
#NCOLUMNS    : 1
#XUNITS      : eV
#YUNITS      : counts
#DATATYPE    : Y
#XPERCHAN    : 9.99778
#OFFSET      : 1.69135
#BEAMKV      : 20
#SIGNALTYPE  : EDS
#ELEVANGLE   : 35
#AZIMANGLE   : 0
#LIVETIME    : 239.923
#REALTIME    : 255.787
#PROBECUR    : 1.02902
#TAUWIND     : 0
#TDEADLYR    : 0
#TACTLYR     : 0.045
#TALWIND     : 0.025
#CHOFFSET    : 0.0
#XLABEL      : Energy (eV)
#YLABEL      : Counts
#XPOSITION   : 2.70097
#YPOSITION   : -2.6919
#ZPOSITION   : 30.9284
#EDSDET      : SD
##SPECIMEN   : SPI MM1 Bustamite[1][all]
##D2STDCMP   : Bustamite,(O:38.8357),(Si:22.7243),(Ca:16.2141),(Mn:22.2259),6.0
##DET_HASH   : 12273538-fd48-a23f-0a19-f1e6fa85caef
##CALIB_HASH : 6abaa72c-aa41-8738-0be9-f592914732f3
##WORKING    : 15.0 mm
##DET_NAME   : EDAX All
##DET_MODE   : MediumLE
#SPECTRUM    :
23,
201,
11236,
4791,
42186,
6867,
2329,
3126,
3315,
4764,
4465,
5336,
56416,
27414,
3857,
3223,
3566,
3196,
3176,
3045,
2965,
3042,
2937,
2838,
2725,
3180,
36836,
13432,
3765,
7390,
2236,
2080,
1937,
1969,
1893,
1798,
1661,
1701,
1654,
1680,
1563,
2672,
39793,
4600,
1499,
4180,
14136,
2724,
1091,
1144,
2009,
1566,
961,
1033,
995,
936,
860,
849,
848,
833,
786,
862,
820,
667,
680,
647,
609,
621,
607,
597,
558,
592,
522,
506,
490,
428,
469,
455,
437,
456,
410,
369,
365,
362,
350,
326,
286,
264,
306,
269,
254,
241,
264,
236,
194,
200,
198,
186,
179,
171,
170,
149,
149,
153,
118,
109,
133,
128,
99,
103,
99,
82,
78,
81,
60,
55,
49,
59,
62,
36,
50,
50,
41,
33,
34,
35,
21,
22,
25,
29,
17,
26,
11,
14,
16,
12,
3,
12,
7,
6,
5,
1,
2,
0,
2,
0,
0,
1,
0,
0,
1,
1,
0,
1,
1,
1,
0,
0,
1,
0,
0,
1,
0,
0,
0,
0,
0,
0,
0,
0,
0,
0,
0,
0,
0,
0,
0,
0,
0,
0,
0,
0,
0,
0,
0,
0,
0,
0,
0,
0,
0,
0,
0,
0,
0,
0,
0,
0,
0,
0,
0,
0,
0,
0,
0,
0,
0,
0,
0,
0,
0,
0,
0,
0,
0,
0,
0,
0,
0,
0,
0,
0,
0,
0,
0,
0,
0,
0,
0,
0,
0,
0,
0,
0,
0,
0,
0,
0,
0,
0,
0,
0,
0,
0,
0,
0,
0,
0,
0,
0,
0,
0,
0,
0,
0,
0,
0,
0,
0,
0,
0,
0,
0,
0,
0,
0,
0,
0,
0,
0,
0,
0,
0,
0,
0,
0,
0,
0,
0,
0,
0,
0,
0,
0,
0,
0,
0,
0,
0,
0,
0,
0,
0,
0,
#ENDOFDATA   :