File: N132962/Quantification/20 keV/MMM1/SPI MM1 Chromite[0][4].msa
#FORMAT      : EMSA/MAS Spectral Data File
#VERSION     : 1.0
#TITLE       : SPI MM1dup Chromite[0][all]
#DATE        : 12-MAR-2025
#TIME        : 14:08
#OWNER       : Unknown
#NPOINTS     : 4096
#NCOLUMNS    : 1
#XUNITS      : eV
#YUNITS      : counts
#DATATYPE    : Y
#XPERCHAN    : 9.99778
#OFFSET      : 1.69135
#BEAMKV      : 20
#SIGNALTYPE  : EDS
#ELEVANGLE   : 35
#AZIMANGLE   : 0
#LIVETIME    : 239.727
#REALTIME    : 256.112
#PROBECUR    : 1.02627
#TAUWIND     : 0
#TDEADLYR    : 0
#TACTLYR     : 0.045
#TALWIND     : 0.025
#CHOFFSET    : 0.0
#XLABEL      : Energy (eV)
#YLABEL      : Counts
#XPOSITION   : 4.2257
#YPOSITION   : -0.2176
#ZPOSITION   : 31.03608
#EDSDET      : SD
##SPECIMEN   : SPI MM1dup Chromite[0][all]
##DET_HASH   : 12273538-fd48-a23f-0a19-f1e6fa85caef
##CALIB_HASH : 6abaa72c-aa41-8738-0be9-f592914732f3
##WORKING    : 15.0 mm
##DET_NAME   : EDAX All
##DET_MODE   : MediumLE
#SPECTRUM    :
26,
200,
9801,
10732,
82781,
7326,
2506,
2823,
3629,
57756,
7827,
27614,
3482,
3862,
3508,
3387,
3294,
3448,
3356,
3313,
3288,
3193,
3013,
2883,
2790,
2681,
2984,
2654,
2496,
2376,
2403,
2236,
2361,
2183,
2012,
2142,
1976,
2085,
21903,
57975,
1998,
1824,
7829,
5958,
1395,
5489,
14557,
1326,
1214,
1296,
2683,
1878,
1020,
1163,
1042,
890,
886,
897,
834,
877,
791,
790,
771,
718,
648,
673,
640,
652,
637,
566,
601,
560,
558,
512,
512,
504,
465,
503,
483,
400,
422,
386,
372,
339,
386,
353,
324,
320,
287,
310,
223,
261,
280,
234,
236,
204,
215,
175,
192,
169,
135,
174,
160,
148,
138,
117,
116,
120,
114,
83,
113,
90,
71,
97,
74,
74,
50,
58,
64,
61,
52,
65,
43,
50,
48,
34,
33,
25,
35,
29,
23,
16,
17,
16,
14,
9,
12,
8,
9,
5,
11,
1,
1,
0,
0,
0,
1,
0,
0,
0,
0,
0,
1,
0,
0,
2,
0,
0,
0,
0,
0,
0,
0,
0,
0,
0,
0,
0,
0,
0,
0,
0,
0,
0,
0,
0,
0,
0,
0,
0,
0,
0,
0,
0,
1,
0,
0,
0,
0,
0,
0,
0,
0,
0,
0,
1,
0,
0,
0,
1,
0,
0,
0,
0,
0,
0,
0,
0,
0,
0,
0,
0,
0,
0,
0,
0,
0,
0,
0,
0,
0,
0,
0,
0,
0,
0,
0,
0,
0,
0,
0,
0,
0,
0,
0,
0,
0,
0,
0,
0,
0,
0,
0,
0,
0,
0,
0,
0,
0,
0,
0,
0,
0,
0,
0,
0,
0,
0,
0,
0,
0,
0,
0,
0,
0,
0,
0,
0,
0,
0,
0,
0,
0,
0,
0,
0,
0,
0,
0,
0,
0,
0,
0,
0,
0,
0,
0,
0,
0,
0,
0,
0,
0,
0,
#ENDOFDATA   :