File: N132962/Quantification/20 keV/MMM1/SPI MM1 Chlorite[0][4].msa
#FORMAT      : EMSA/MAS Spectral Data File
#VERSION     : 1.0
#TITLE       : SPI MM1dup Chlorite[0][all]
#DATE        : 12-MAR-2025
#TIME        : 14:18
#OWNER       : Unknown
#NPOINTS     : 4096
#NCOLUMNS    : 1
#XUNITS      : eV
#YUNITS      : counts
#DATATYPE    : Y
#XPERCHAN    : 9.99778
#OFFSET      : 1.69135
#BEAMKV      : 20
#SIGNALTYPE  : EDS
#ELEVANGLE   : 35
#AZIMANGLE   : 0
#LIVETIME    : 239.83
#REALTIME    : 254.695
#PROBECUR    : 1.02867
#TAUWIND     : 0
#TDEADLYR    : 0
#TACTLYR     : 0.045
#TALWIND     : 0.025
#CHOFFSET    : 0.0
#XLABEL      : Energy (eV)
#YLABEL      : Counts
#XPOSITION   : 6.09054
#YPOSITION   : -0.41586
#ZPOSITION   : 31.03608
#EDSDET      : SD
##SPECIMEN   : SPI MM1dup Chlorite[0][all]
##DET_HASH   : 12273538-fd48-a23f-0a19-f1e6fa85caef
##CALIB_HASH : 6abaa72c-aa41-8738-0be9-f592914732f3
##WORKING    : 15.0 mm
##DET_NAME   : EDAX All
##DET_MODE   : MediumLE
#SPECTRUM    :
17,
182,
8749,
7637,
81178,
4239,
2747,
3190,
4688,
151054,
6431,
22508,
28335,
14464,
2226,
2192,
2470,
2207,
2341,
2187,
2098,
2189,
2048,
2003,
1760,
1863,
1700,
1624,
1603,
1540,
1490,
1395,
1351,
1337,
1284,
1267,
1223,
1177,
1945,
3284,
1100,
950,
1254,
1073,
917,
1922,
4364,
801,
758,
791,
1113,
878,
681,
918,
691,
590,
583,
599,
566,
570,
521,
482,
468,
482,
410,
399,
421,
388,
381,
366,
355,
324,
367,
326,
285,
281,
303,
265,
269,
213,
230,
245,
232,
215,
216,
212,
173,
160,
195,
179,
164,
132,
143,
160,
121,
115,
117,
112,
117,
100,
83,
83,
82,
80,
64,
75,
71,
83,
54,
59,
62,
45,
46,
49,
40,
48,
42,
38,
29,
20,
31,
25,
20,
27,
17,
17,
20,
12,
19,
15,
13,
6,
6,
8,
6,
5,
6,
7,
2,
3,
0,
1,
1,
0,
0,
0,
1,
0,
0,
0,
0,
0,
0,
0,
0,
0,
0,
0,
0,
0,
0,
0,
1,
0,
0,
0,
0,
0,
0,
0,
0,
0,
0,
0,
0,
0,
0,
0,
0,
0,
0,
0,
0,
0,
0,
0,
0,
0,
0,
0,
0,
0,
0,
0,
0,
0,
0,
0,
0,
0,
0,
0,
0,
0,
0,
0,
0,
0,
0,
0,
0,
0,
0,
0,
0,
0,
0,
0,
0,
0,
0,
0,
0,
0,
0,
0,
0,
0,
0,
0,
0,
0,
0,
0,
0,
0,
0,
0,
0,
0,
0,
0,
0,
0,
0,
0,
0,
0,
0,
0,
0,
0,
0,
0,
0,
0,
0,
0,
0,
0,
0,
0,
0,
0,
0,
0,
0,
0,
0,
0,
0,
0,
0,
0,
0,
0,
0,
0,
0,
0,
0,
0,
0,
0,
0,
0,
0,
0,
0,
0,
0,
0,
0,
0,
#ENDOFDATA   :