File: N132962/Quantification/20 keV/MMM1/SPI MM1 Albite[4][4].msa
#FORMAT      : EMSA/MAS Spectral Data File
#VERSION     : 1.0
#TITLE       : SPI MM1 Albite[4][all]
#DATE        : 11-MAR-2025
#TIME        : 12:53
#OWNER       : Unknown
#NPOINTS     : 4096
#NCOLUMNS    : 1
#XUNITS      : eV
#YUNITS      : counts
#DATATYPE    : Y
#XPERCHAN    : 9.99778
#OFFSET      : 1.69135
#BEAMKV      : 20
#SIGNALTYPE  : EDS
#ELEVANGLE   : 35
#AZIMANGLE   : 0
#LIVETIME    : 239.841
#REALTIME    : 255.969
#PROBECUR    : 1.02699
#TAUWIND     : 0
#TDEADLYR    : 0
#TACTLYR     : 0.045
#TALWIND     : 0.025
#CHOFFSET    : 0.0
#XLABEL      : Energy (eV)
#YLABEL      : Counts
#XPOSITION   : 3.44344
#YPOSITION   : -7.03335
#ZPOSITION   : 30.9284
#EDSDET      : SD
##SPECIMEN   : SPI MM1 Albite[4][all]
##D2STDCMP   : Albite,(O:48.8112),(Na:8.7674),(Al:10.2897),(Si:32.1316)
##DET_HASH   : 12273538-fd48-a23f-0a19-f1e6fa85caef
##CALIB_HASH : 6abaa72c-aa41-8738-0be9-f592914732f3
##WORKING    : 15.0 mm
##DET_NAME   : EDAX All
##DET_MODE   : MediumLE
#SPECTRUM    :
32,
195,
7628,
6411,
67645,
2098,
2696,
14087,
5740,
3773,
9478,
33698,
73775,
34818,
2136,
2033,
2820,
2162,
2227,
2113,
2285,
2048,
1986,
2306,
2308,
2206,
1952,
1754,
1661,
1619,
1544,
1491,
1373,
1387,
1318,
1327,
1306,
1192,
1173,
1127,
1085,
1047,
1000,
966,
947,
907,
923,
857,
817,
806,
766,
783,
665,
713,
666,
642,
650,
611,
583,
491,
544,
543,
526,
476,
446,
441,
396,
396,
410,
415,
362,
406,
350,
361,
304,
304,
317,
289,
310,
309,
248,
253,
245,
214,
205,
223,
208,
204,
174,
175,
157,
178,
151,
145,
138,
126,
112,
122,
125,
94,
93,
112,
81,
83,
82,
77,
84,
62,
51,
58,
83,
46,
47,
44,
36,
37,
35,
34,
51,
35,
36,
32,
40,
20,
22,
22,
16,
13,
21,
13,
16,
11,
13,
5,
6,
8,
9,
4,
3,
2,
2,
1,
1,
0,
1,
0,
0,
0,
0,
0,
0,
0,
0,
1,
0,
0,
0,
1,
0,
0,
0,
0,
0,
0,
0,
0,
0,
0,
0,
0,
0,
0,
0,
0,
0,
0,
0,
0,
0,
0,
0,
0,
0,
0,
0,
0,
0,
0,
0,
0,
0,
0,
0,
0,
0,
0,
0,
0,
0,
0,
0,
0,
0,
0,
0,
0,
0,
0,
0,
0,
0,
0,
0,
0,
0,
0,
0,
0,
0,
0,
0,
0,
0,
0,
0,
0,
0,
0,
0,
0,
0,
0,
0,
0,
0,
0,
0,
0,
0,
0,
0,
0,
0,
0,
0,
0,
0,
0,
0,
0,
0,
0,
0,
0,
0,
0,
0,
0,
0,
0,
0,
0,
0,
0,
0,
0,
0,
0,
0,
0,
0,
0,
0,
0,
0,
0,
0,
0,
0,
0,
0,
0,
0,
0,
0,
0,
0,
0,
0,
0,
0,
0,
0,
0,
#ENDOFDATA   :