File: N132962/Quantification/20 keV/MMM1/SPI MM1 Benitoite[0][4].msa
#FORMAT      : EMSA/MAS Spectral Data File
#VERSION     : 1.0
#TITLE       : SPI MM1 Benitoite[0][all]
#DATE        : 11-MAR-2025
#TIME        : 13:16
#OWNER       : Unknown
#NPOINTS     : 4096
#NCOLUMNS    : 1
#XUNITS      : eV
#YUNITS      : counts
#DATATYPE    : Y
#XPERCHAN    : 9.99778
#OFFSET      : 1.69135
#BEAMKV      : 20
#SIGNALTYPE  : EDS
#ELEVANGLE   : 35
#AZIMANGLE   : 0
#LIVETIME    : 239.852
#REALTIME    : 256.75
#PROBECUR    : 1.02699
#TAUWIND     : 0
#TDEADLYR    : 0
#TACTLYR     : 0.045
#TALWIND     : 0.025
#CHOFFSET    : 0.0
#XLABEL      : Energy (eV)
#YLABEL      : Counts
#XPOSITION   : -3.27661
#YPOSITION   : -4.90693
#ZPOSITION   : 30.9284
#EDSDET      : SD
##SPECIMEN   : SPI MM1 Benitoite[0][all]
##D2STDCMP   : Benitoite,(O:34.828),(Si:20.3791),(Ti:11.5776),(Ba:33.2153)
##DET_HASH   : 12273538-fd48-a23f-0a19-f1e6fa85caef
##CALIB_HASH : 6abaa72c-aa41-8738-0be9-f592914732f3
##WORKING    : 15.0 mm
##DET_NAME   : EDAX All
##DET_MODE   : MediumLE
#SPECTRUM    :
27,
291,
11438,
12159,
44570,
3683,
4045,
4791,
3953,
4145,
4664,
5502,
45952,
23052,
3747,
3986,
4223,
4022,
3954,
4234,
4246,
3911,
3912,
3753,
3728,
3627,
3425,
3425,
4444,
3485,
3263,
6277,
81083,
7296,
11239,
19340,
4713,
9187,
2426,
3354,
3425,
2778,
2395,
1958,
1858,
1950,
1905,
1629,
1661,
1661,
1532,
1445,
1535,
1573,
1461,
1278,
1345,
1317,
1298,
1188,
1170,
1167,
1133,
1046,
1057,
1054,
1018,
987,
982,
943,
863,
890,
859,
839,
798,
715,
740,
712,
656,
668,
619,
624,
569,
607,
590,
551,
502,
495,
448,
449,
444,
458,
365,
396,
354,
353,
346,
350,
300,
294,
271,
231,
268,
250,
217,
232,
199,
201,
177,
168,
152,
133,
153,
144,
137,
140,
125,
105,
83,
72,
73,
89,
77,
71,
66,
64,
53,
53,
42,
36,
40,
32,
20,
18,
22,
15,
30,
11,
15,
8,
12,
6,
5,
2,
1,
0,
0,
2,
0,
0,
0,
2,
1,
0,
1,
0,
0,
1,
0,
1,
0,
1,
0,
1,
1,
0,
0,
0,
1,
0,
0,
0,
0,
0,
0,
0,
0,
0,
0,
0,
0,
0,
1,
0,
0,
0,
0,
0,
0,
1,
0,
0,
0,
0,
0,
0,
0,
0,
0,
0,
0,
0,
0,
0,
0,
0,
0,
0,
0,
0,
0,
0,
0,
0,
0,
0,
0,
0,
0,
0,
0,
0,
0,
0,
0,
0,
0,
0,
0,
0,
0,
0,
0,
0,
0,
0,
0,
0,
0,
0,
0,
0,
0,
0,
0,
0,
0,
0,
0,
0,
0,
0,
0,
0,
0,
0,
0,
0,
0,
0,
0,
0,
0,
0,
0,
0,
0,
0,
0,
0,
0,
0,
0,
0,
0,
0,
0,
0,
0,
0,
0,
0,
0,
0,
0,
0,
0,
0,
0,
0,
0,
0,
0,
0,
#ENDOFDATA   :