File: N132962/Quantification/20 keV/MMM1/SPI MM1 Calcite[2][4].msa
#FORMAT      : EMSA/MAS Spectral Data File
#VERSION     : 1.0
#TITLE       : SPI MM1 Calcite[2][all]
#DATE        : 11-MAR-2025
#TIME        : 14:14
#OWNER       : Unknown
#NPOINTS     : 4096
#NCOLUMNS    : 1
#XUNITS      : eV
#YUNITS      : counts
#DATATYPE    : Y
#XPERCHAN    : 9.99778
#OFFSET      : 1.69135
#BEAMKV      : 20
#SIGNALTYPE  : EDS
#ELEVANGLE   : 35
#AZIMANGLE   : 0
#LIVETIME    : 239.922
#REALTIME    : 252.206
#PROBECUR    : 1.02902
#TAUWIND     : 0
#TDEADLYR    : 0
#TACTLYR     : 0.045
#TALWIND     : 0.025
#CHOFFSET    : 0.0
#XLABEL      : Energy (eV)
#YLABEL      : Counts
#XPOSITION   : 0.11014
#YPOSITION   : -2.9602
#ZPOSITION   : 30.9284
#EDSDET      : SD
##SPECIMEN   : SPI MM1 Calcite[2][all]
##D2STDCMP   : Calcite,(C:12.0003),(O:47.9565),(Ca:40.0432),5.0
##DET_HASH   : 12273538-fd48-a23f-0a19-f1e6fa85caef
##CALIB_HASH : 6abaa72c-aa41-8738-0be9-f592914732f3
##WORKING    : 15.0 mm
##DET_NAME   : EDAX All
##DET_MODE   : MediumLE
#SPECTRUM    :
30,
273,
38772,
2882,
23597,
1594,
2151,
2486,
2977,
3554,
3855,
4130,
4249,
4357,
5674,
3633,
3615,
3367,
3161,
3120,
2905,
2836,
2694,
2759,
2424,
3446,
103639,
34863,
6345,
16945,
1663,
1418,
1424,
1390,
1374,
1365,
1296,
1217,
1227,
1247,
1144,
1110,
1278,
1106,
1091,
988,
1060,
905,
880,
914,
827,
812,
831,
942,
799,
763,
678,
648,
687,
657,
622,
633,
583,
553,
533,
507,
519,
463,
468,
493,
423,
453,
409,
418,
416,
367,
370,
377,
344,
293,
308,
277,
290,
256,
250,
264,
241,
221,
214,
199,
181,
155,
172,
179,
164,
163,
162,
137,
139,
120,
138,
126,
122,
107,
89,
102,
89,
81,
95,
72,
66,
78,
60,
44,
56,
51,
52,
48,
44,
52,
32,
27,
28,
35,
28,
31,
16,
19,
15,
13,
14,
14,
9,
16,
10,
11,
6,
4,
3,
3,
4,
0,
2,
1,
1,
1,
1,
1,
0,
0,
0,
0,
0,
0,
0,
0,
0,
0,
0,
0,
0,
0,
0,
0,
0,
0,
0,
0,
0,
0,
0,
0,
0,
0,
0,
0,
0,
0,
0,
0,
0,
0,
0,
0,
0,
0,
0,
0,
0,
0,
0,
0,
0,
0,
0,
0,
0,
0,
0,
0,
0,
0,
0,
0,
0,
0,
0,
0,
0,
0,
0,
0,
0,
0,
0,
0,
0,
0,
0,
0,
0,
0,
0,
0,
0,
0,
0,
0,
0,
0,
0,
0,
0,
0,
0,
0,
0,
0,
0,
0,
0,
0,
0,
0,
0,
0,
0,
0,
0,
0,
0,
0,
0,
0,
0,
0,
0,
0,
0,
0,
0,
0,
0,
0,
0,
0,
0,
0,
0,
0,
0,
0,
0,
0,
0,
0,
0,
0,
0,
0,
0,
0,
0,
0,
0,
0,
0,
0,
0,
0,
0,
0,
0,
0,
#ENDOFDATA   :