File: N132962/Quantification/20 keV/MMM1/SPI MM1 Dolomite[5][4].msa
#FORMAT      : EMSA/MAS Spectral Data File
#VERSION     : 1.0
#TITLE       : SPI MM1dup Dolomite[5][all]
#DATE        : 12-MAR-2025
#TIME        : 15:50
#OWNER       : Unknown
#NPOINTS     : 4096
#NCOLUMNS    : 1
#XUNITS      : eV
#YUNITS      : counts
#DATATYPE    : Y
#XPERCHAN    : 9.99778
#OFFSET      : 1.69135
#BEAMKV      : 20
#SIGNALTYPE  : EDS
#ELEVANGLE   : 35
#AZIMANGLE   : 0
#LIVETIME    : 239.635
#REALTIME    : 250.5396
#PROBECUR    : 1.02695
#TAUWIND     : 0
#TDEADLYR    : 0
#TACTLYR     : 0.045
#TALWIND     : 0.025
#CHOFFSET    : 0.0
#XLABEL      : Energy (eV)
#YLABEL      : Counts
#XPOSITION   : -0.09479
#YPOSITION   : 1.96023
#ZPOSITION   : 31.03608
#EDSDET      : SD
##SPECIMEN   : SPI MM1dup Dolomite[5][all]
##DET_HASH   : 12273538-fd48-a23f-0a19-f1e6fa85caef
##CALIB_HASH : 6abaa72c-aa41-8738-0be9-f592914732f3
##WORKING    : 15.0 mm
##DET_NAME   : EDAX All
##DET_MODE   : MediumLE
#SPECTRUM    :
24,
206,
26242,
3728,
35403,
1649,
1998,
2471,
3381,
84410,
3224,
4472,
3350,
3399,
3944,
2888,
2801,
2818,
2630,
2537,
2386,
2312,
2347,
2345,
2042,
2551,
54712,
18801,
3894,
9389,
1510,
1397,
1296,
1283,
1278,
1205,
1154,
1185,
1084,
1000,
1030,
1003,
1003,
892,
865,
963,
1038,
771,
764,
775,
731,
691,
678,
697,
677,
623,
612,
571,
558,
513,
518,
524,
469,
478,
454,
458,
443,
412,
406,
389,
398,
342,
323,
318,
330,
299,
301,
270,
283,
267,
252,
227,
262,
226,
227,
191,
199,
182,
187,
160,
163,
175,
157,
138,
117,
114,
120,
120,
119,
98,
80,
89,
83,
95,
83,
77,
86,
68,
52,
56,
63,
61,
51,
44,
43,
34,
29,
43,
25,
28,
24,
26,
22,
28,
17,
25,
20,
14,
15,
11,
11,
9,
7,
8,
16,
7,
4,
6,
4,
4,
1,
1,
1,
0,
1,
0,
0,
0,
1,
0,
0,
0,
0,
0,
0,
0,
0,
0,
0,
0,
0,
0,
0,
0,
0,
0,
0,
0,
0,
0,
0,
0,
0,
0,
0,
0,
1,
0,
0,
0,
0,
0,
0,
0,
0,
0,
0,
0,
0,
0,
0,
0,
0,
0,
0,
0,
0,
0,
0,
0,
0,
0,
0,
0,
0,
0,
0,
0,
0,
0,
0,
0,
0,
0,
0,
0,
0,
0,
0,
0,
0,
0,
0,
0,
0,
0,
0,
0,
0,
0,
0,
0,
0,
0,
0,
0,
0,
0,
0,
0,
0,
0,
0,
0,
0,
0,
0,
0,
0,
0,
0,
0,
0,
0,
0,
0,
0,
0,
0,
0,
0,
0,
0,
0,
0,
0,
0,
0,
0,
0,
0,
0,
0,
0,
0,
0,
0,
0,
0,
0,
0,
0,
0,
0,
0,
0,
0,
0,
0,
0,
0,
0,
0,
0,
#ENDOFDATA   :