File: N132962/Quantification/20 keV/MMM1/SPI MM1 Calcite[1][4].msa
#FORMAT      : EMSA/MAS Spectral Data File
#VERSION     : 1.0
#TITLE       : SPI MM1 Calcite[1][all]
#DATE        : 11-MAR-2025
#TIME        : 14:13
#OWNER       : Unknown
#NPOINTS     : 4096
#NCOLUMNS    : 1
#XUNITS      : eV
#YUNITS      : counts
#DATATYPE    : Y
#XPERCHAN    : 9.99778
#OFFSET      : 1.69135
#BEAMKV      : 20
#SIGNALTYPE  : EDS
#ELEVANGLE   : 35
#AZIMANGLE   : 0
#LIVETIME    : 239.836
#REALTIME    : 252.01
#PROBECUR    : 1.02902
#TAUWIND     : 0
#TDEADLYR    : 0
#TACTLYR     : 0.045
#TALWIND     : 0.025
#CHOFFSET    : 0.0
#XLABEL      : Energy (eV)
#YLABEL      : Counts
#XPOSITION   : 0.40161
#YPOSITION   : -2.70204
#ZPOSITION   : 30.9284
#EDSDET      : SD
##SPECIMEN   : SPI MM1 Calcite[1][all]
##D2STDCMP   : Calcite,(C:12.0003),(O:47.9565),(Ca:40.0432),5.0
##DET_HASH   : 12273538-fd48-a23f-0a19-f1e6fa85caef
##CALIB_HASH : 6abaa72c-aa41-8738-0be9-f592914732f3
##WORKING    : 15.0 mm
##DET_NAME   : EDAX All
##DET_MODE   : MediumLE
#SPECTRUM    :
31,
292,
38092,
2840,
22774,
1620,
2179,
2596,
2959,
3446,
3809,
3993,
4264,
4330,
5504,
3498,
3688,
3358,
3267,
3034,
2892,
2844,
2639,
2746,
2503,
3372,
102432,
34489,
6343,
16587,
1663,
1488,
1449,
1366,
1365,
1344,
1337,
1287,
1260,
1177,
1154,
1160,
1170,
1081,
1011,
1045,
1073,
920,
926,
856,
894,
785,
830,
962,
788,
752,
673,
660,
621,
638,
586,
589,
588,
544,
528,
491,
473,
504,
442,
463,
410,
458,
450,
405,
341,
365,
362,
345,
280,
306,
304,
312,
284,
284,
225,
250,
231,
225,
225,
206,
201,
189,
181,
186,
173,
154,
142,
135,
122,
117,
107,
116,
109,
108,
104,
92,
101,
77,
84,
63,
75,
71,
52,
62,
46,
36,
36,
41,
35,
39,
19,
35,
29,
26,
20,
21,
14,
21,
20,
16,
17,
12,
8,
11,
12,
10,
4,
6,
2,
4,
3,
3,
1,
0,
0,
0,
0,
0,
0,
0,
0,
0,
0,
0,
1,
1,
0,
0,
0,
0,
0,
0,
0,
0,
0,
1,
0,
0,
0,
0,
0,
0,
0,
0,
0,
0,
0,
0,
0,
0,
0,
0,
0,
0,
0,
0,
0,
0,
0,
0,
0,
0,
0,
0,
0,
0,
0,
0,
0,
0,
0,
0,
0,
0,
0,
0,
0,
0,
0,
0,
0,
0,
0,
0,
0,
0,
0,
0,
0,
0,
0,
0,
0,
0,
0,
0,
0,
0,
0,
0,
0,
0,
0,
1,
0,
0,
0,
0,
0,
0,
0,
0,
0,
0,
0,
0,
0,
0,
0,
0,
0,
0,
0,
0,
0,
0,
0,
0,
0,
0,
0,
0,
0,
0,
0,
0,
0,
0,
0,
0,
0,
0,
0,
0,
0,
0,
0,
0,
0,
0,
0,
0,
0,
0,
0,
0,
0,
0,
0,
0,
0,
0,
0,
0,
#ENDOFDATA   :