File: N132962/Quantification/20 keV/MMM1/SPI MM1 Kaersutite[5][4].msa
#FORMAT      : EMSA/MAS Spectral Data File
#VERSION     : 1.0
#TITLE       : SPI MM1dup Kaersutite[5][all]
#DATE        : 12-MAR-2025
#TIME        : 16:25
#OWNER       : Unknown
#NPOINTS     : 4096
#NCOLUMNS    : 1
#XUNITS      : eV
#YUNITS      : counts
#DATATYPE    : Y
#XPERCHAN    : 9.99778
#OFFSET      : 1.69135
#BEAMKV      : 20
#SIGNALTYPE  : EDS
#ELEVANGLE   : 35
#AZIMANGLE   : 0
#LIVETIME    : 239.642
#REALTIME    : 254.243
#PROBECUR    : 1.02709
#TAUWIND     : 0
#TDEADLYR    : 0
#TACTLYR     : 0.045
#TALWIND     : 0.025
#CHOFFSET    : 0.0
#XLABEL      : Energy (eV)
#YLABEL      : Counts
#XPOSITION   : -1.62336
#YPOSITION   : 3.60287
#ZPOSITION   : 31.03608
#EDSDET      : SD
##SPECIMEN   : SPI MM1dup Kaersutite[5][all]
##DET_HASH   : 12273538-fd48-a23f-0a19-f1e6fa85caef
##CALIB_HASH : 6abaa72c-aa41-8738-0be9-f592914732f3
##WORKING    : 15.0 mm
##DET_NAME   : EDAX All
##DET_MODE   : MediumLE
#SPECTRUM    :
25,
182,
9386,
5760,
43632,
8620,
2579,
4889,
4114,
53975,
6752,
20033,
41704,
20850,
3182,
2685,
2911,
2738,
2702,
2800,
2699,
2610,
2393,
3001,
4863,
2524,
22178,
8273,
2832,
4991,
1919,
1813,
10105,
2627,
1574,
2781,
1671,
1396,
1361,
1430,
1277,
1225,
1445,
1168,
1101,
4921,
13469,
1179,
1011,
1043,
2323,
1591,
884,
887,
851,
783,
723,
694,
661,
720,
602,
625,
602,
571,
532,
564,
519,
510,
435,
493,
462,
435,
471,
447,
440,
348,
373,
377,
314,
341,
345,
341,
293,
267,
269,
255,
231,
226,
248,
213,
194,
195,
215,
198,
183,
184,
166,
138,
125,
147,
139,
131,
121,
108,
115,
108,
92,
93,
76,
76,
72,
71,
80,
61,
68,
48,
56,
49,
34,
34,
38,
32,
34,
28,
37,
23,
28,
31,
14,
22,
13,
11,
5,
8,
10,
13,
6,
2,
6,
3,
2,
3,
0,
0,
1,
0,
2,
0,
0,
0,
0,
0,
0,
0,
0,
0,
0,
0,
0,
0,
0,
0,
0,
0,
0,
0,
0,
1,
0,
0,
1,
0,
0,
0,
0,
0,
0,
0,
0,
0,
0,
0,
0,
0,
0,
0,
0,
0,
0,
0,
0,
0,
0,
0,
0,
0,
0,
0,
0,
0,
0,
0,
0,
0,
0,
0,
0,
0,
0,
0,
0,
0,
0,
0,
0,
0,
0,
0,
0,
0,
0,
0,
0,
0,
0,
0,
0,
0,
0,
0,
0,
0,
0,
0,
0,
0,
0,
0,
0,
0,
0,
0,
0,
0,
0,
0,
0,
0,
0,
0,
0,
0,
0,
0,
0,
0,
0,
0,
0,
0,
0,
0,
0,
0,
0,
0,
0,
0,
0,
0,
0,
0,
0,
0,
0,
0,
0,
0,
0,
0,
0,
0,
0,
0,
0,
0,
0,
0,
0,
0,
0,
0,
0,
0,
#ENDOFDATA   :