File: N132962/Quantification/20 keV/MMM1/SPI MM1 Almandine[0][4].msa
#FORMAT      : EMSA/MAS Spectral Data File
#VERSION     : 1.0
#TITLE       : SPI MM1 Almandine[0][all]
#DATE        : 11-MAR-2025
#TIME        : 12:57
#OWNER       : Unknown
#NPOINTS     : 4096
#NCOLUMNS    : 1
#XUNITS      : eV
#YUNITS      : counts
#DATATYPE    : Y
#XPERCHAN    : 9.99778
#OFFSET      : 1.69135
#BEAMKV      : 20
#SIGNALTYPE  : EDS
#ELEVANGLE   : 35
#AZIMANGLE   : 0
#LIVETIME    : 239.836
#REALTIME    : 255.275
#PROBECUR    : 1.02699
#TAUWIND     : 0
#TDEADLYR    : 0
#TACTLYR     : 0.045
#TALWIND     : 0.025
#CHOFFSET    : 0.0
#XLABEL      : Energy (eV)
#YLABEL      : Counts
#XPOSITION   : 0.42431
#YPOSITION   : -7.84747
#ZPOSITION   : 30.9284
#EDSDET      : SD
##SPECIMEN   : SPI MM1 Almandine[0][all]
##D2STDCMP   : Almandine,(O:38.5719),(Al:10.8416),(Si:16.9275),(Fe:33.6591),4.05
##DET_HASH   : 12273538-fd48-a23f-0a19-f1e6fa85caef
##CALIB_HASH : 6abaa72c-aa41-8738-0be9-f592914732f3
##WORKING    : 15.0 mm
##DET_NAME   : EDAX All
##DET_MODE   : MediumLE
#SPECTRUM    :
23,
176,
9028,
6310,
59787,
15136,
2492,
2951,
3637,
41866,
8938,
31290,
39708,
19493,
2906,
2682,
3086,
2703,
2786,
2662,
2710,
2651,
2521,
2559,
2483,
2427,
9153,
4427,
2400,
3113,
1965,
1853,
1816,
1846,
1702,
1632,
1582,
1538,
1461,
1478,
1348,
1312,
2301,
1320,
1297,
9365,
27169,
1420,
1137,
1254,
4078,
2579,
849,
950,
839,
777,
782,
721,
802,
719,
701,
676,
629,
610,
598,
581,
575,
500,
519,
534,
501,
458,
461,
445,
462,
436,
432,
394,
379,
334,
347,
349,
332,
284,
283,
279,
269,
286,
239,
229,
223,
237,
219,
196,
183,
197,
171,
151,
145,
148,
125,
117,
120,
149,
93,
109,
106,
102,
78,
97,
76,
81,
103,
70,
70,
53,
45,
63,
50,
54,
42,
50,
33,
23,
35,
33,
19,
27,
17,
22,
24,
19,
9,
14,
11,
7,
13,
3,
5,
4,
2,
1,
1,
1,
0,
0,
0,
0,
0,
1,
0,
0,
0,
0,
1,
0,
0,
0,
0,
0,
0,
0,
0,
0,
0,
0,
0,
0,
0,
0,
0,
0,
0,
0,
0,
0,
0,
0,
0,
0,
0,
0,
0,
0,
0,
0,
0,
0,
0,
0,
0,
0,
0,
0,
0,
0,
0,
0,
0,
0,
0,
0,
0,
0,
0,
0,
0,
0,
0,
0,
0,
0,
0,
0,
0,
0,
0,
0,
0,
0,
0,
0,
0,
0,
0,
0,
0,
0,
0,
0,
0,
0,
0,
0,
0,
0,
0,
0,
0,
0,
0,
0,
0,
0,
0,
0,
0,
0,
0,
0,
0,
0,
0,
0,
0,
0,
0,
0,
0,
0,
0,
0,
0,
0,
0,
0,
0,
0,
0,
0,
0,
0,
0,
0,
0,
0,
0,
0,
0,
0,
0,
0,
0,
0,
0,
0,
0,
0,
0,
0,
0,
0,
0,
0,
#ENDOFDATA   :