File: N132962/Quantification/20 keV/MMM1/SPI MM1 Kyanite[7][4].msa
#FORMAT      : EMSA/MAS Spectral Data File
#VERSION     : 1.0
#TITLE       : SPI MM1dup Kyanite[7][all]
#DATE        : 12-MAR-2025
#TIME        : 16:18
#OWNER       : Unknown
#NPOINTS     : 4096
#NCOLUMNS    : 1
#XUNITS      : eV
#YUNITS      : counts
#DATATYPE    : Y
#XPERCHAN    : 9.99778
#OFFSET      : 1.69135
#BEAMKV      : 20
#SIGNALTYPE  : EDS
#ELEVANGLE   : 35
#AZIMANGLE   : 0
#LIVETIME    : 239.832
#REALTIME    : 256.613
#PROBECUR    : 1.02709
#TAUWIND     : 0
#TDEADLYR    : 0
#TACTLYR     : 0.045
#TALWIND     : 0.025
#CHOFFSET    : 0.0
#XLABEL      : Energy (eV)
#YLABEL      : Counts
#XPOSITION   : -4.14302
#YPOSITION   : 4.18045
#ZPOSITION   : 31.03608
#EDSDET      : SD
##SPECIMEN   : SPI MM1dup Kyanite[7][all]
##DET_HASH   : 12273538-fd48-a23f-0a19-f1e6fa85caef
##CALIB_HASH : 6abaa72c-aa41-8738-0be9-f592914732f3
##WORKING    : 15.0 mm
##DET_NAME   : EDAX All
##DET_MODE   : MediumLE
#SPECTRUM    :
34,
167,
7572,
6437,
68135,
2045,
2568,
3336,
3907,
5030,
22973,
105023,
32778,
15889,
2575,
2072,
2401,
2062,
2108,
2153,
2098,
2582,
2071,
2373,
1939,
1897,
1681,
1622,
1609,
1486,
1538,
1410,
1445,
1373,
1310,
1295,
1219,
1210,
1141,
1167,
1106,
1061,
988,
967,
904,
1019,
1114,
887,
827,
811,
808,
800,
678,
716,
646,
651,
612,
608,
577,
565,
552,
533,
499,
507,
489,
438,
405,
410,
414,
364,
364,
361,
324,
342,
364,
306,
322,
313,
278,
263,
273,
264,
231,
237,
189,
185,
205,
184,
188,
164,
163,
168,
145,
140,
146,
143,
136,
117,
115,
104,
113,
75,
101,
88,
75,
67,
72,
80,
59,
61,
55,
51,
53,
44,
49,
47,
33,
34,
25,
35,
30,
23,
20,
22,
20,
13,
28,
16,
14,
15,
12,
12,
9,
7,
8,
7,
6,
7,
2,
3,
2,
2,
0,
0,
0,
0,
0,
0,
0,
0,
0,
0,
0,
0,
0,
0,
0,
0,
0,
0,
0,
0,
0,
0,
0,
0,
0,
0,
0,
0,
0,
0,
0,
0,
0,
0,
0,
0,
0,
0,
0,
0,
0,
0,
0,
0,
0,
0,
0,
0,
0,
0,
0,
0,
0,
0,
0,
0,
1,
0,
0,
0,
0,
0,
0,
0,
0,
0,
0,
0,
0,
0,
0,
0,
0,
0,
0,
0,
0,
0,
0,
0,
0,
0,
0,
0,
0,
0,
0,
0,
0,
0,
0,
0,
0,
0,
0,
0,
0,
0,
0,
0,
0,
0,
0,
0,
0,
0,
0,
0,
0,
0,
0,
0,
0,
0,
0,
0,
0,
0,
0,
0,
0,
0,
0,
0,
0,
0,
0,
0,
0,
0,
0,
0,
0,
0,
0,
0,
0,
0,
0,
0,
0,
0,
0,
0,
0,
0,
0,
0,
0,
0,
0,
0,
#ENDOFDATA   :