File: N132962/Quantification/20 keV/MMM1/SPI MM1 Albite[1][4].msa
#FORMAT      : EMSA/MAS Spectral Data File
#VERSION     : 1.0
#TITLE       : SPI MM1 Albite[1][all]
#DATE        : 11-MAR-2025
#TIME        : 12:49
#OWNER       : Unknown
#NPOINTS     : 4096
#NCOLUMNS    : 1
#XUNITS      : eV
#YUNITS      : counts
#DATATYPE    : Y
#XPERCHAN    : 9.99778
#OFFSET      : 1.69135
#BEAMKV      : 20
#SIGNALTYPE  : EDS
#ELEVANGLE   : 35
#AZIMANGLE   : 0
#LIVETIME    : 239.843
#REALTIME    : 255.972
#PROBECUR    : 1.02699
#TAUWIND     : 0
#TDEADLYR    : 0
#TACTLYR     : 0.045
#TALWIND     : 0.025
#CHOFFSET    : 0.0
#XLABEL      : Energy (eV)
#YLABEL      : Counts
#XPOSITION   : 3.4476
#YPOSITION   : -6.99962
#ZPOSITION   : 30.9284
#EDSDET      : SD
##SPECIMEN   : SPI MM1 Albite[1][all]
##D2STDCMP   : Albite,(O:48.8112),(Na:8.7674),(Al:10.2897),(Si:32.1316)
##DET_HASH   : 12273538-fd48-a23f-0a19-f1e6fa85caef
##CALIB_HASH : 6abaa72c-aa41-8738-0be9-f592914732f3
##WORKING    : 15.0 mm
##DET_NAME   : EDAX All
##DET_MODE   : MediumLE
#SPECTRUM    :
33,
211,
7608,
6541,
67218,
2165,
2824,
14178,
5688,
3751,
9597,
33009,
74048,
34845,
2157,
2094,
2809,
2105,
2122,
2037,
2209,
2036,
2003,
2319,
2218,
2210,
1990,
1671,
1613,
1608,
1523,
1509,
1389,
1426,
1348,
1226,
1255,
1208,
1191,
1117,
1070,
1043,
1049,
1027,
959,
981,
946,
858,
839,
765,
816,
806,
680,
715,
647,
680,
646,
560,
599,
564,
559,
495,
501,
478,
497,
437,
417,
429,
417,
374,
412,
357,
383,
329,
340,
301,
315,
290,
277,
261,
257,
250,
211,
242,
236,
209,
198,
194,
198,
170,
170,
147,
139,
154,
123,
136,
139,
109,
106,
117,
117,
88,
104,
83,
89,
86,
64,
61,
56,
73,
52,
60,
55,
51,
43,
41,
45,
26,
46,
30,
33,
28,
26,
26,
23,
24,
25,
16,
15,
15,
13,
9,
8,
11,
3,
8,
3,
5,
2,
3,
1,
2,
1,
0,
0,
1,
0,
0,
0,
0,
0,
0,
0,
1,
0,
0,
1,
0,
0,
0,
0,
0,
0,
0,
0,
0,
0,
0,
0,
0,
0,
0,
0,
0,
0,
0,
0,
0,
0,
0,
0,
0,
0,
0,
0,
0,
0,
0,
0,
0,
0,
0,
0,
0,
0,
0,
0,
0,
0,
0,
0,
0,
0,
0,
0,
0,
0,
0,
0,
0,
0,
0,
0,
0,
0,
0,
0,
0,
0,
0,
0,
0,
0,
0,
0,
0,
0,
0,
0,
0,
0,
0,
0,
0,
0,
0,
0,
0,
0,
0,
0,
0,
0,
0,
0,
0,
0,
0,
0,
0,
0,
0,
0,
0,
0,
0,
0,
0,
0,
0,
0,
0,
0,
0,
0,
0,
0,
0,
0,
0,
0,
0,
0,
0,
0,
0,
0,
0,
0,
0,
0,
0,
0,
0,
0,
0,
0,
0,
0,
0,
0,
0,
0,
0,
#ENDOFDATA   :