File: N132962/Quantification/20 keV/MMM1/SPI MM1 Diopside[0][4].msa
#FORMAT      : EMSA/MAS Spectral Data File
#VERSION     : 1.0
#TITLE       : SPI MM1dup Diopside[0][all]
#DATE        : 12-MAR-2025
#TIME        : 15:35
#OWNER       : Unknown
#NPOINTS     : 4096
#NCOLUMNS    : 1
#XUNITS      : eV
#YUNITS      : counts
#DATATYPE    : Y
#XPERCHAN    : 9.99778
#OFFSET      : 1.69135
#BEAMKV      : 20
#SIGNALTYPE  : EDS
#ELEVANGLE   : 35
#AZIMANGLE   : 0
#LIVETIME    : 239.871
#REALTIME    : 255.276
#PROBECUR    : 1.02695
#TAUWIND     : 0
#TDEADLYR    : 0
#TACTLYR     : 0.045
#TALWIND     : 0.025
#CHOFFSET    : 0.0
#XLABEL      : Energy (eV)
#YLABEL      : Counts
#XPOSITION   : 2.16343
#YPOSITION   : 1.43719
#ZPOSITION   : 31.03609
#EDSDET      : SD
##SPECIMEN   : SPI MM1dup Diopside[0][all]
##D2STDCMP   : Diopside,(O:44.3298),(Mg:11.2237),(Si:25.939),(Ca:18.5075)
##DET_HASH   : 12273538-fd48-a23f-0a19-f1e6fa85caef
##CALIB_HASH : 6abaa72c-aa41-8738-0be9-f592914732f3
##WORKING    : 15.0 mm
##DET_NAME   : EDAX All
##DET_MODE   : MediumLE
#SPECTRUM    :
31,
171,
10264,
3965,
35485,
2646,
2637,
3570,
4359,
81164,
4051,
5316,
63593,
30166,
3468,
2649,
2958,
2648,
2659,
2505,
2514,
2640,
2416,
2404,
2214,
2821,
44764,
15631,
3748,
8437,
1750,
1569,
1599,
1454,
1375,
1466,
1389,
1339,
1338,
1404,
1151,
1165,
1300,
1095,
1036,
1271,
1866,
936,
941,
913,
951,
913,
835,
784,
747,
705,
694,
712,
663,
605,
629,
581,
594,
577,
543,
536,
486,
505,
489,
475,
427,
424,
437,
407,
396,
371,
336,
349,
351,
319,
316,
312,
298,
239,
239,
256,
239,
229,
225,
214,
198,
179,
194,
180,
164,
154,
143,
165,
126,
122,
123,
119,
97,
103,
98,
91,
88,
80,
79,
55,
64,
69,
61,
63,
70,
35,
41,
39,
55,
49,
38,
34,
28,
28,
19,
16,
20,
15,
16,
24,
18,
15,
11,
12,
10,
9,
11,
3,
5,
6,
6,
3,
4,
0,
0,
0,
0,
0,
0,
1,
0,
0,
0,
0,
0,
0,
0,
0,
0,
0,
0,
0,
0,
0,
0,
2,
0,
0,
0,
0,
0,
0,
0,
0,
0,
0,
0,
0,
0,
0,
0,
0,
0,
0,
0,
0,
0,
0,
0,
0,
0,
0,
0,
0,
0,
0,
0,
0,
0,
0,
0,
0,
0,
0,
0,
0,
0,
0,
0,
0,
0,
0,
0,
0,
0,
0,
0,
0,
0,
0,
0,
0,
0,
0,
0,
0,
0,
0,
0,
0,
0,
0,
0,
0,
0,
0,
0,
0,
0,
0,
0,
0,
0,
0,
0,
0,
0,
0,
0,
0,
0,
0,
0,
0,
0,
0,
0,
0,
0,
0,
0,
0,
0,
0,
0,
0,
0,
0,
0,
0,
0,
0,
0,
0,
0,
0,
0,
0,
0,
0,
0,
0,
0,
0,
0,
0,
0,
0,
0,
0,
0,
0,
0,
0,
#ENDOFDATA   :