File: N132962/Quantification/20 keV/MMM1/SPI MM1 Galena[1][4].msa
#FORMAT      : EMSA/MAS Spectral Data File
#VERSION     : 1.0
#TITLE       : SPI MM1dup Galena[1][all]
#DATE        : 12-MAR-2025
#TIME        : 15:55
#OWNER       : Unknown
#NPOINTS     : 4096
#NCOLUMNS    : 1
#XUNITS      : eV
#YUNITS      : counts
#DATATYPE    : Y
#XPERCHAN    : 9.99778
#OFFSET      : 1.69135
#BEAMKV      : 20
#SIGNALTYPE  : EDS
#ELEVANGLE   : 35
#AZIMANGLE   : 0
#LIVETIME    : 239.848
#REALTIME    : 269.104
#PROBECUR    : 1.02695
#TAUWIND     : 0
#TDEADLYR    : 0
#TACTLYR     : 0.045
#TALWIND     : 0.025
#CHOFFSET    : 0.0
#XLABEL      : Energy (eV)
#YLABEL      : Counts
#XPOSITION   : -5.59158
#YPOSITION   : 1.99488
#ZPOSITION   : 31.03608
#EDSDET      : SD
##SPECIMEN   : SPI MM1dup Galena[1][all]
##DET_HASH   : 12273538-fd48-a23f-0a19-f1e6fa85caef
##CALIB_HASH : 6abaa72c-aa41-8738-0be9-f592914732f3
##WORKING    : 15.0 mm
##DET_NAME   : EDAX All
##DET_MODE   : MediumLE
#SPECTRUM    :
29,
1647,
17754,
4468,
10026,
9727,
7893,
8403,
8753,
9803,
10568,
11152,
11803,
24782,
11448,
11974,
53939,
224454,
34914,
12724,
5237,
5769,
7477,
5802,
5285,
5606,
5385,
5358,
5165,
5297,
5281,
5415,
5215,
5481,
5835,
5221,
5107,
5000,
4922,
5000,
4850,
4791,
4704,
4567,
4409,
4580,
4834,
4392,
4216,
4169,
4073,
3917,
3965,
4093,
3833,
3627,
3650,
3501,
3389,
3349,
3284,
3147,
3034,
2990,
3029,
3320,
3363,
2663,
2703,
2550,
2523,
2569,
2495,
2355,
3745,
15161,
8201,
2281,
1969,
1984,
1920,
1937,
1758,
1717,
1716,
1547,
1640,
1670,
1648,
2493,
6839,
2804,
1603,
1535,
1249,
1132,
1052,
1026,
973,
945,
870,
860,
825,
794,
732,
1145,
966,
737,
770,
665,
550,
542,
511,
537,
473,
435,
402,
392,
389,
356,
331,
312,
273,
293,
265,
237,
221,
202,
169,
209,
142,
164,
143,
149,
110,
99,
81,
74,
61,
50,
43,
25,
18,
6,
9,
10,
6,
9,
3,
4,
5,
6,
8,
4,
3,
5,
6,
5,
2,
3,
0,
2,
3,
4,
6,
1,
4,
1,
2,
3,
4,
4,
0,
2,
1,
3,
2,
1,
2,
1,
3,
2,
2,
3,
4,
3,
2,
0,
4,
1,
1,
0,
0,
2,
1,
0,
2,
0,
0,
0,
0,
1,
0,
1,
1,
2,
0,
0,
0,
0,
1,
0,
0,
0,
0,
0,
2,
0,
0,
1,
0,
0,
0,
0,
0,
0,
0,
0,
0,
0,
0,
0,
0,
1,
0,
0,
0,
0,
0,
0,
0,
0,
0,
0,
0,
0,
0,
0,
0,
0,
0,
0,
0,
0,
0,
0,
0,
0,
0,
0,
0,
0,
0,
0,
0,
0,
0,
0,
0,
0,
0,
0,
0,
0,
0,
0,
0,
0,
0,
0,
0,
0,
0,
0,
0,
0,
0,
0,
0,
0,
0,
0,
0,
0,
#ENDOFDATA   :