File: N132962/Quantification/20 keV/MMM1/SPI MM1 Dolomite[2][4].msa
#FORMAT      : EMSA/MAS Spectral Data File
#VERSION     : 1.0
#TITLE       : SPI MM1dup Dolomite[2][all]
#DATE        : 12-MAR-2025
#TIME        : 15:47
#OWNER       : Unknown
#NPOINTS     : 4096
#NCOLUMNS    : 1
#XUNITS      : eV
#YUNITS      : counts
#DATATYPE    : Y
#XPERCHAN    : 9.99778
#OFFSET      : 1.69135
#BEAMKV      : 20
#SIGNALTYPE  : EDS
#ELEVANGLE   : 35
#AZIMANGLE   : 0
#LIVETIME    : 239.862
#REALTIME    : 250.732
#PROBECUR    : 1.02695
#TAUWIND     : 0
#TDEADLYR    : 0
#TACTLYR     : 0.045
#TALWIND     : 0.025
#CHOFFSET    : 0.0
#XLABEL      : Energy (eV)
#YLABEL      : Counts
#XPOSITION   : -0.17938
#YPOSITION   : 2.012
#ZPOSITION   : 31.03608
#EDSDET      : SD
##SPECIMEN   : SPI MM1dup Dolomite[2][all]
##DET_HASH   : 12273538-fd48-a23f-0a19-f1e6fa85caef
##CALIB_HASH : 6abaa72c-aa41-8738-0be9-f592914732f3
##WORKING    : 15.0 mm
##DET_NAME   : EDAX All
##DET_MODE   : MediumLE
#SPECTRUM    :
25,
254,
26797,
3707,
35466,
1660,
2073,
2482,
3550,
86595,
2813,
3122,
3227,
3488,
4036,
2878,
2953,
2725,
2542,
2491,
2462,
2370,
2340,
2159,
2140,
2561,
55169,
19143,
3914,
9557,
1564,
1372,
1295,
1270,
1181,
1251,
1210,
1137,
1095,
993,
1001,
987,
1022,
926,
851,
875,
973,
802,
752,
816,
767,
729,
680,
715,
642,
640,
570,
560,
511,
516,
518,
513,
499,
455,
451,
447,
391,
385,
400,
419,
350,
374,
308,
296,
313,
268,
302,
303,
279,
245,
232,
240,
193,
198,
191,
191,
202,
168,
176,
143,
150,
163,
157,
136,
132,
142,
123,
114,
106,
84,
95,
82,
80,
87,
94,
70,
73,
63,
61,
52,
53,
54,
44,
37,
39,
40,
38,
32,
27,
36,
34,
28,
25,
19,
15,
12,
13,
31,
14,
14,
13,
10,
8,
11,
1,
5,
5,
3,
3,
3,
2,
0,
0,
0,
0,
0,
0,
0,
1,
0,
0,
0,
0,
0,
0,
0,
0,
0,
0,
0,
0,
0,
0,
0,
0,
0,
0,
0,
0,
0,
1,
0,
0,
0,
0,
0,
0,
0,
1,
0,
0,
0,
0,
0,
0,
0,
0,
0,
0,
0,
0,
0,
0,
0,
0,
0,
0,
0,
0,
0,
0,
0,
0,
0,
0,
0,
0,
0,
0,
0,
0,
0,
0,
0,
0,
0,
0,
0,
0,
0,
0,
0,
0,
0,
0,
0,
0,
0,
0,
0,
0,
0,
0,
0,
0,
0,
0,
0,
0,
0,
0,
0,
0,
0,
0,
0,
0,
0,
0,
0,
0,
0,
0,
0,
0,
0,
0,
0,
0,
0,
0,
0,
0,
0,
0,
0,
0,
0,
0,
0,
0,
0,
0,
0,
0,
0,
0,
0,
0,
0,
0,
0,
0,
0,
0,
0,
0,
0,
0,
0,
0,
0,
0,
0,
#ENDOFDATA   :