File: N132962/Quantification/20 keV/MMM1/SPI MM1 Almandine[7][4].msa
#FORMAT      : EMSA/MAS Spectral Data File
#VERSION     : 1.0
#TITLE       : SPI MM1 Almandine[7][all]
#DATE        : 11-MAR-2025
#TIME        : 13:05
#OWNER       : Unknown
#NPOINTS     : 4096
#NCOLUMNS    : 1
#XUNITS      : eV
#YUNITS      : counts
#DATATYPE    : Y
#XPERCHAN    : 9.99778
#OFFSET      : 1.69135
#BEAMKV      : 20
#SIGNALTYPE  : EDS
#ELEVANGLE   : 35
#AZIMANGLE   : 0
#LIVETIME    : 239.841
#REALTIME    : 255.278
#PROBECUR    : 1.02699
#TAUWIND     : 0
#TDEADLYR    : 0
#TACTLYR     : 0.045
#TALWIND     : 0.025
#CHOFFSET    : 0.0
#XLABEL      : Energy (eV)
#YLABEL      : Counts
#XPOSITION   : 0.40315
#YPOSITION   : -7.8607
#ZPOSITION   : 30.9284
#EDSDET      : SD
##SPECIMEN   : SPI MM1 Almandine[7][all]
##D2STDCMP   : Almandine,(O:38.5719),(Al:10.8416),(Si:16.9275),(Fe:33.6591),4.05
##DET_HASH   : 12273538-fd48-a23f-0a19-f1e6fa85caef
##CALIB_HASH : 6abaa72c-aa41-8738-0be9-f592914732f3
##WORKING    : 15.0 mm
##DET_NAME   : EDAX All
##DET_MODE   : MediumLE
#SPECTRUM    :
19,
182,
9022,
6412,
60170,
15345,
2447,
2885,
3679,
41830,
8777,
30959,
39476,
19404,
2996,
2666,
3021,
2793,
2728,
2709,
2710,
2680,
2550,
2702,
2431,
2478,
9251,
4406,
2412,
3049,
2040,
1848,
1936,
1775,
1688,
1638,
1527,
1539,
1455,
1470,
1433,
1360,
2230,
1303,
1257,
9482,
28014,
1435,
1135,
1230,
4105,
2486,
875,
924,
806,
797,
790,
758,
773,
710,
699,
659,
664,
660,
568,
542,
574,
515,
551,
508,
482,
451,
484,
462,
428,
395,
389,
378,
371,
368,
302,
322,
310,
320,
293,
303,
286,
258,
238,
244,
240,
215,
183,
226,
179,
182,
202,
180,
134,
150,
143,
144,
135,
97,
111,
111,
115,
95,
95,
68,
77,
73,
73,
63,
68,
60,
58,
55,
40,
46,
32,
46,
36,
35,
29,
33,
21,
18,
26,
20,
21,
17,
13,
11,
10,
9,
8,
7,
5,
4,
2,
1,
2,
1,
0,
0,
1,
1,
1,
0,
1,
0,
0,
0,
0,
0,
0,
0,
0,
0,
0,
0,
0,
0,
0,
0,
0,
0,
0,
0,
0,
0,
0,
0,
0,
0,
0,
0,
0,
1,
0,
0,
0,
0,
0,
0,
0,
0,
0,
0,
0,
0,
0,
0,
0,
0,
0,
0,
0,
0,
0,
0,
0,
0,
0,
0,
0,
0,
0,
0,
0,
0,
0,
0,
0,
0,
0,
0,
0,
0,
0,
0,
0,
0,
0,
0,
0,
0,
0,
0,
0,
0,
0,
0,
0,
0,
0,
0,
0,
0,
0,
0,
0,
0,
0,
0,
0,
0,
0,
0,
0,
0,
0,
0,
0,
0,
0,
0,
0,
0,
0,
0,
0,
0,
0,
0,
0,
0,
0,
0,
0,
0,
0,
0,
0,
0,
0,
0,
0,
0,
0,
0,
0,
0,
0,
0,
0,
0,
0,
0,
0,
0,
0,
0,
#ENDOFDATA   :