File: N132962/Standards/15 keV/Ag std.msa
#FORMAT      : EMSA/MAS Spectral Data File
#VERSION     : 1.0
#TITLE       : Ag standard for 'N132962' detector
#NPOINTS     : 4096
#NCOLUMNS    : 1
#XUNITS      : eV
#YUNITS      : counts
#DATATYPE    : Y
#SIGNALTYPE  : EDS
#XLABEL      : Energy (eV)
#YLABEL      : Counts
#XPERCHAN -eV: 9.99778
#OFFSET   -eV: 1.69135
#CHOFFSET    : 0
#DATE        : 25-Sep-2025
#TIME        : 20:20:00
#OWNER       : Unknown
#ELEVANGLE   : 35
#BEAMKV   -kV: 15
#LIVETIME  -s: 1199.5
#REALTIME  -s: 1308.17
#PROBECUR -nA: 1.20924
##WORKING -mm: 15
##D2STDCMP   : Ag,(Ag:100.0000)
##SIMILAR    : 4.4
#SPECTRUM    :
115,
7817,
244430,
33108,
40631,
29416,
31774,
36955,
41146,
80999,
54667,
48741,
47809,
48083,
41443,
41525,
46717,
44403,
42620,
86218,
57393,
627293,
249344,
248740,
126251,
52163,
22636,
28610,
18710,
18673,
18738,
18663,
20016,
18487,
17787,
17673,
17179,
17022,
16719,
16301,
15908,
15648,
15297,
15389,
15254,
14337,
14151,
13192,
12764,
12418,
11969,
11688,
11373,
11156,
10859,
10309,
10086,
10198,
9548,
9115,
8914,
8644,
8238,
7812,
7673,
7404,
7125,
6775,
6746,
6364,
6119,
6113,
5695,
5425,
5363,
5833,
5075,
4528,
4319,
4186,
4090,
3793,
3494,
3331,
3310,
2993,
2720,
2643,
2451,
2269,
2116,
2016,
1814,
1700,
1538,
1369,
1295,
1151,
970,
936,
811,
655,
531,
423,
352,
260,
146,
72,
18,
18,
17,
22,
20,
21,
13,
7,
23,
13,
10,
14,
10,
14,
10,
10,
9,
13,
5,
7,
3,
4,
3,
5,
6,
2,
2,
2,
1,
4,
2,
2,
4,
2,
5,
3,
1,
1,
2,
2,
2,
1,
1,
2,
2,
1,
2,
1,
0,
0,
3,
0,
0,
1,
1,
3,
1,
0,
0,
0,
0,
0,
0,
1,
1,
0,
0,
0,
2,
1,
0,
0,
0,
1,
0,
0,
0,
0,
0,
0,
0,
0,
0,
0,
0,
0,
0,
0,
0,
0,
0,
0,
0,
0,
0,
0,
0,
0,
0,
0,
0,
0,
0,
0,
0,
0,
0,
0,
0,
0,
0,
0,
0,
0,
0,
0,
0,
0,
0,
0,
0,
0,
0,
0,
0,
0,
0,
0,
0,
0,
0,
0,
0,
0,
0,
0,
0,
0,
0,
0,
0,
0,
0,
0,
0,
0,
0,
0,
0,
0,
0,
0,
0,
0,
0,
0,
0,
0,
0,
0,
0,
0,
0,
0,
0,
0,
0,
0,
0,
0,
0,
0,
0,
0,
0,
0,
0,
0,
0,
0,
0,
0,
0,
0,
0,
0,
#ENDOFDATA   :