File: N132962/Standards/15 keV/Al std.msa
#FORMAT      : EMSA/MAS Spectral Data File
#VERSION     : 1.0
#TITLE       : Al standard for 'N132962' detector
#NPOINTS     : 4096
#NCOLUMNS    : 1
#XUNITS      : eV
#YUNITS      : counts
#DATATYPE    : Y
#SIGNALTYPE  : EDS
#XLABEL      : Energy (eV)
#YLABEL      : Counts
#XPERCHAN -eV: 9.99778
#OFFSET   -eV: 1.69135
#CHOFFSET    : 0
#DATE        : 26-Sep-2025
#TIME        : 20:00:00
#OWNER       : Unknown
#ELEVANGLE   : 35
#BEAMKV   -kV: 15
#LIVETIME  -s: 2162.08
#REALTIME  -s: 2433.76
#PROBECUR -nA: 1.21382
##WORKING -mm: 15
##D2STDCMP   : Al,(Al:100.0000)
##SIMILAR    : 2.5
#SPECTRUM    :
245,
1889,
34331,
35766,
94320,
73794,
72902,
75853,
79477,
101100,
719158,
3172230,
23033,
22502,
22094,
21899,
22205,
22340,
22178,
22214,
21887,
75200,
25211,
18730,
17886,
17690,
16738,
15916,
15407,
14854,
14568,
13990,
13573,
12848,
12344,
11701,
11308,
11037,
10789,
10408,
9634,
9217,
9008,
8423,
8327,
8086,
7857,
7243,
6931,
6674,
6466,
6167,
5999,
5890,
5581,
5309,
5067,
4847,
4614,
4409,
4332,
4075,
3995,
3793,
3551,
3433,
3341,
3213,
2959,
2957,
2682,
2611,
2436,
2325,
2157,
2208,
2088,
1898,
1845,
1591,
1595,
1534,
1396,
1366,
1177,
1203,
1089,
1008,
948,
861,
774,
732,
652,
607,
507,
449,
389,
399,
322,
283,
269,
231,
163,
143,
104,
87,
35,
22,
7,
12,
5,
4,
6,
2,
2,
2,
0,
2,
0,
1,
0,
3,
0,
2,
1,
2,
2,
1,
0,
2,
0,
1,
1,
0,
0,
3,
0,
0,
1,
0,
0,
0,
0,
0,
0,
1,
0,
0,
1,
0,
0,
0,
0,
1,
0,
0,
0,
0,
0,
1,
0,
0,
0,
0,
0,
0,
1,
0,
1,
0,
0,
0,
0,
0,
0,
0,
0,
0,
0,
0,
0,
0,
0,
0,
0,
0,
0,
0,
0,
0,
0,
0,
0,
0,
0,
0,
0,
0,
0,
0,
0,
0,
0,
0,
0,
0,
0,
0,
0,
0,
0,
0,
0,
0,
0,
0,
0,
0,
0,
0,
0,
0,
0,
0,
0,
0,
0,
0,
0,
0,
0,
0,
0,
0,
0,
0,
0,
0,
0,
0,
0,
0,
0,
0,
0,
0,
0,
0,
0,
0,
0,
0,
0,
0,
0,
0,
0,
0,
0,
0,
0,
0,
0,
0,
0,
0,
0,
0,
0,
0,
0,
0,
0,
0,
0,
0,
0,
0,
0,
0,
0,
0,
0,
0,
0,
0,
0,
0,
0,
0,
0,
0,
0,
0,
#ENDOFDATA   :