File: N132962/Standards/15 keV/Al2O3 std.msa
#FORMAT      : EMSA/MAS Spectral Data File
#VERSION     : 1.0
#TITLE       : Al2O3 standard for 'N132962' detector
#NPOINTS     : 4096
#NCOLUMNS    : 1
#XUNITS      : eV
#YUNITS      : counts
#DATATYPE    : Y
#SIGNALTYPE  : EDS
#XLABEL      : Energy (eV)
#YLABEL      : Counts
#XPERCHAN -eV: 9.99778
#OFFSET   -eV: 1.69135
#CHOFFSET    : 0
#DATE        : 30-Sep-2025
#TIME        : 16:22:00
#OWNER       : Unknown
#ELEVANGLE   : 35
#BEAMKV   -kV: 15
#LIVETIME  -s: 959.685
#REALTIME  -s: 1039.53
#PROBECUR -nA: 1.22939
##WORKING -mm: 15
##D2STDCMP   : Al2O3,(O:47.0743),(Al:52.9257)
##SIMILAR    : 1.1
#SPECTRUM    :
114,
964,
22107,
44981,
408644,
13188,
15306,
18381,
19760,
25114,
142306,
649118,
10152,
10236,
14229,
9777,
9105,
8947,
8644,
8415,
8130,
12197,
7871,
7050,
6770,
6710,
6005,
5822,
5677,
5510,
5009,
4931,
4782,
4510,
4354,
4098,
4068,
3857,
3622,
3496,
3376,
3171,
3097,
3045,
2869,
2789,
2842,
2493,
2331,
2375,
2226,
2126,
2004,
2052,
1913,
1776,
1666,
1681,
1612,
1513,
1457,
1394,
1368,
1279,
1168,
1101,
1099,
1056,
1023,
943,
913,
874,
848,
813,
712,
723,
695,
616,
553,
588,
503,
457,
454,
447,
378,
381,
329,
307,
321,
243,
247,
249,
213,
207,
163,
173,
143,
110,
120,
106,
70,
64,
59,
52,
40,
21,
8,
2,
3,
3,
0,
0,
0,
0,
1,
0,
0,
1,
0,
1,
0,
0,
0,
0,
0,
1,
0,
0,
0,
0,
0,
0,
0,
0,
0,
0,
1,
0,
0,
0,
1,
0,
0,
0,
0,
0,
0,
0,
0,
1,
0,
0,
0,
0,
0,
0,
0,
0,
0,
0,
0,
0,
0,
0,
0,
0,
0,
0,
0,
0,
0,
0,
0,
0,
0,
0,
0,
0,
0,
0,
0,
0,
0,
0,
0,
0,
0,
0,
0,
0,
0,
0,
0,
0,
0,
0,
0,
0,
0,
0,
0,
0,
0,
0,
0,
0,
0,
0,
0,
0,
0,
0,
0,
0,
0,
0,
0,
0,
0,
0,
0,
0,
0,
0,
0,
0,
0,
0,
0,
0,
0,
0,
0,
0,
0,
0,
0,
0,
0,
0,
0,
0,
0,
0,
0,
0,
0,
0,
0,
0,
0,
0,
0,
0,
0,
0,
0,
0,
0,
0,
0,
0,
0,
0,
0,
0,
0,
0,
0,
0,
0,
0,
0,
0,
0,
0,
0,
0,
0,
0,
0,
0,
0,
0,
0,
0,
0,
0,
0,
0,
0,
0,
0,
0,
#ENDOFDATA   :