File: N132962/Standards/15 keV/AlN std.msa
#FORMAT      : EMSA/MAS Spectral Data File
#VERSION     : 1.0
#TITLE       : AlN standard for 'N132962' detector
#NPOINTS     : 4096
#NCOLUMNS    : 1
#XUNITS      : eV
#YUNITS      : counts
#DATATYPE    : Y
#SIGNALTYPE  : EDS
#XLABEL      : Energy (eV)
#YLABEL      : Counts
#XPERCHAN -eV: 9.99778
#OFFSET   -eV: 1.69135
#CHOFFSET    : 0
#DATE        : 27-Sep-2025
#TIME        : 15:46:00
#OWNER       : Unknown
#ELEVANGLE   : 35
#BEAMKV   -kV: 15
#LIVETIME  -s: 960.132
#REALTIME  -s: 1038.76
#PROBECUR -nA: 1.21
##WORKING -mm: 15
##D2STDCMP   : AlN,(N:34.1730),(Al:65.8270)
##SIMILAR    : 27.2
#SPECTRUM    :
118,
879,
27846,
133045,
13274,
16325,
20452,
22862,
23957,
30631,
192763,
856951,
9890,
11690,
10738,
8875,
8917,
8650,
8576,
8429,
8241,
15700,
8479,
7087,
6819,
6528,
6161,
5795,
5618,
5343,
5115,
4913,
4736,
4564,
4400,
4215,
4138,
3834,
3707,
3619,
3365,
3387,
3075,
2971,
2942,
2756,
2772,
2529,
2341,
2437,
2267,
2112,
2021,
1985,
1911,
1803,
1737,
1703,
1599,
1567,
1498,
1387,
1377,
1282,
1166,
1109,
1133,
1050,
1047,
1042,
971,
869,
807,
766,
773,
746,
666,
596,
566,
559,
544,
471,
463,
411,
374,
386,
366,
337,
303,
293,
250,
268,
190,
198,
185,
174,
129,
128,
111,
109,
86,
60,
41,
38,
30,
18,
14,
0,
2,
1,
1,
1,
0,
0,
1,
0,
0,
0,
1,
0,
0,
0,
0,
1,
0,
0,
0,
0,
0,
0,
0,
1,
0,
2,
0,
0,
0,
0,
0,
0,
0,
1,
0,
0,
1,
0,
0,
0,
0,
0,
0,
0,
0,
0,
0,
0,
0,
0,
0,
0,
0,
1,
0,
0,
0,
0,
0,
0,
0,
0,
0,
0,
0,
0,
0,
0,
0,
0,
0,
0,
0,
0,
0,
0,
0,
0,
0,
0,
0,
0,
0,
0,
0,
0,
0,
0,
0,
0,
0,
0,
0,
0,
0,
0,
0,
0,
0,
0,
0,
0,
0,
0,
0,
0,
0,
0,
0,
0,
0,
0,
0,
0,
0,
0,
0,
0,
0,
0,
0,
0,
0,
0,
0,
0,
0,
0,
0,
0,
0,
0,
0,
0,
0,
0,
0,
0,
0,
0,
0,
0,
0,
0,
0,
0,
0,
0,
0,
0,
0,
0,
0,
0,
0,
0,
0,
0,
0,
0,
0,
0,
0,
0,
0,
0,
0,
0,
0,
0,
0,
0,
0,
0,
0,
0,
0,
0,
0,
0,
0,
0,
0,
0,
0,
0,
#ENDOFDATA   :