File: N132962/Standards/15 keV/As std.msa
#FORMAT      : EMSA/MAS Spectral Data File
#VERSION     : 1.0
#TITLE       : As standard for 'N132962' detector
#NPOINTS     : 4096
#NCOLUMNS    : 1
#XUNITS      : eV
#YUNITS      : counts
#DATATYPE    : Y
#SIGNALTYPE  : EDS
#XLABEL      : Energy (eV)
#YLABEL      : Counts
#XPERCHAN -eV: 9.99778
#OFFSET   -eV: 1.69135
#CHOFFSET    : 0
#DATE        : 25-Sep-2025
#TIME        : 20:57:00
#OWNER       : Unknown
#ELEVANGLE   : 35
#BEAMKV   -kV: 15
#LIVETIME  -s: 1196.31
#REALTIME  -s: 1288.5
#PROBECUR -nA: 1.20952
##WORKING -mm: 15
##D2STDCMP   : As,(As:100.0000)
##SIMILAR    : 31.8
#SPECTRUM    :
128,
1574,
37888,
41026,
174608,
29774,
35940,
40499,
139281,
1499597,
78071,
18143,
19150,
22363,
17558,
17886,
18992,
19421,
21081,
20343,
17852,
18058,
17501,
17068,
16626,
16256,
17079,
15816,
15249,
14723,
13933,
13644,
14046,
13002,
12439,
12211,
11827,
11406,
11064,
10667,
10231,
9894,
9456,
9199,
8936,
8724,
8479,
7845,
7665,
7462,
7078,
6932,
6692,
6572,
6246,
5889,
5819,
5640,
5454,
5140,
4849,
4852,
4673,
4535,
4290,
4035,
3901,
3793,
3588,
3474,
3321,
3072,
3146,
3034,
5679,
33752,
11797,
2508,
2312,
2145,
2031,
2009,
1886,
3686,
5266,
1897,
1300,
1227,
1081,
1045,
971,
881,
862,
785,
658,
620,
523,
484,
436,
391,
334,
268,
232,
196,
145,
105,
52,
27,
11,
8,
9,
5,
6,
6,
4,
3,
2,
2,
2,
1,
3,
4,
3,
4,
6,
3,
3,
2,
0,
4,
2,
2,
4,
3,
6,
1,
2,
1,
3,
4,
0,
0,
4,
0,
0,
1,
0,
1,
2,
1,
3,
3,
0,
1,
1,
0,
1,
0,
2,
2,
0,
1,
0,
1,
0,
1,
1,
0,
0,
0,
0,
0,
0,
0,
0,
0,
0,
0,
0,
0,
0,
0,
0,
0,
0,
0,
0,
0,
0,
0,
0,
0,
0,
0,
0,
0,
0,
0,
0,
0,
0,
0,
0,
0,
0,
0,
0,
0,
0,
0,
0,
0,
0,
0,
0,
0,
0,
0,
0,
0,
0,
0,
0,
0,
0,
0,
0,
0,
0,
0,
0,
0,
0,
0,
0,
0,
0,
0,
0,
0,
0,
0,
0,
0,
0,
0,
0,
0,
0,
0,
0,
0,
0,
0,
0,
0,
0,
0,
0,
0,
0,
0,
0,
0,
0,
0,
0,
0,
0,
0,
0,
0,
0,
0,
0,
0,
0,
0,
0,
0,
0,
0,
0,
0,
0,
0,
0,
0,
0,
0,
0,
0,
0,
0,
#ENDOFDATA   :