File: N132962/Standards/15 keV/Au std.msa
#FORMAT      : EMSA/MAS Spectral Data File
#VERSION     : 1.0
#TITLE       : Au standard for 'N132962' detector
#NPOINTS     : 4096
#NCOLUMNS    : 1
#XUNITS      : eV
#YUNITS      : counts
#DATATYPE    : Y
#SIGNALTYPE  : EDS
#XLABEL      : Energy (eV)
#YLABEL      : Counts
#XPERCHAN -eV: 9.99778
#OFFSET   -eV: 1.69135
#CHOFFSET    : 0
#DATE        : 26-Sep-2025
#TIME        : 15:15:00
#OWNER       : Unknown
#ELEVANGLE   : 35
#BEAMKV   -kV: 15
#LIVETIME  -s: 1921.25
#REALTIME  -s: 2135.46
#PROBECUR -nA: 1.22003
##WORKING -mm: 15
##D2STDCMP   : Au,(Au:100.0000)
##SIMILAR    : 1.3
#SPECTRUM    :
211,
12802,
116446,
85017,
72382,
81734,
90229,
95770,
101113,
105293,
110565,
121748,
234587,
116643,
143223,
1817651,
884699,
113195,
54678,
58255,
70168,
51626,
50737,
49627,
51024,
48352,
48473,
49250,
48300,
47656,
49259,
50730,
46178,
44929,
43948,
43400,
42624,
41991,
41445,
40749,
39378,
38253,
37390,
36744,
35480,
35487,
36188,
32937,
32027,
31063,
30594,
29527,
28414,
28533,
27313,
26338,
25643,
24812,
24217,
23552,
23949,
24229,
21520,
20592,
20041,
19087,
18847,
18399,
21091,
64947,
38642,
16381,
15146,
14638,
13982,
13549,
12685,
12354,
11845,
11707,
11623,
12868,
19003,
17862,
9822,
9284,
7716,
6946,
6800,
6227,
6004,
5627,
5221,
4967,
4574,
4707,
4404,
3608,
3330,
2952,
2481,
2198,
1886,
1560,
1287,
904,
560,
235,
80,
86,
67,
62,
59,
49,
57,
46,
56,
51,
45,
39,
37,
25,
34,
32,
30,
36,
22,
33,
27,
30,
21,
18,
25,
23,
23,
25,
22,
23,
26,
19,
16,
10,
15,
10,
13,
13,
16,
11,
9,
9,
9,
11,
8,
9,
9,
10,
8,
9,
7,
6,
6,
6,
2,
4,
2,
3,
2,
3,
4,
2,
1,
2,
1,
2,
1,
1,
6,
2,
1,
1,
0,
0,
0,
1,
0,
0,
1,
1,
1,
0,
1,
0,
0,
0,
0,
1,
1,
0,
1,
1,
0,
0,
0,
0,
0,
0,
0,
0,
0,
0,
0,
0,
0,
0,
0,
0,
0,
0,
0,
0,
0,
0,
0,
0,
0,
0,
0,
0,
0,
0,
0,
0,
0,
0,
0,
0,
0,
0,
0,
0,
0,
0,
0,
0,
0,
0,
0,
0,
0,
0,
0,
0,
0,
0,
0,
0,
0,
0,
0,
0,
0,
0,
0,
0,
0,
0,
0,
0,
0,
0,
0,
0,
0,
0,
0,
0,
0,
0,
0,
0,
0,
0,
0,
0,
0,
0,
0,
0,
0,
0,
0,
0,
0,
0,
#ENDOFDATA   :