File: N132962/Standards/15 keV/BaCl std.msa
#FORMAT      : EMSA/MAS Spectral Data File
#VERSION     : 1.0
#TITLE       : BaCl standard for 'N132962' detector
#NPOINTS     : 4096
#NCOLUMNS    : 1
#XUNITS      : eV
#YUNITS      : counts
#DATATYPE    : Y
#SIGNALTYPE  : EDS
#XLABEL      : Energy (eV)
#YLABEL      : Counts
#XPERCHAN -eV: 9.99778
#OFFSET   -eV: 1.69135
#CHOFFSET    : 0
#DATE        : 29-Sep-2025
#TIME        : 10:17:00
#OWNER       : Unknown
#ELEVANGLE   : 35
#BEAMKV   -kV: 15
#LIVETIME  -s: 715.975
#REALTIME  -s: 768.266
#PROBECUR -nA: 1.2156
##WORKING -mm: 15
##D2STDCMP   : BaCl,(Cl:20.5178),(Ba:79.4822)
##SIMILAR    : 4.7
#SPECTRUM    :
208,
18161,
19702,
14882,
58243,
28375,
26630,
23853,
16319,
15728,
16989,
18203,
18910,
19718,
16830,
16989,
17870,
17621,
54554,
340040,
55452,
13909,
13312,
12752,
12532,
12173,
12088,
11992,
16626,
12486,
11425,
23585,
184368,
13381,
44240,
58430,
15386,
37237,
9010,
12771,
12939,
9933,
8817,
6986,
6158,
6376,
6219,
5863,
5857,
5776,
5696,
5586,
5360,
5320,
5014,
4873,
4806,
4546,
4491,
4314,
4280,
3982,
3967,
3867,
3678,
3545,
3458,
3430,
3255,
3141,
3002,
2794,
2810,
2652,
2513,
2448,
2254,
2154,
2112,
2015,
1887,
1768,
1662,
1680,
1545,
1471,
1390,
1261,
1193,
1117,
1014,
999,
869,
805,
748,
696,
643,
552,
504,
468,
395,
328,
277,
198,
188,
122,
61,
27,
11,
6,
13,
5,
8,
9,
3,
6,
7,
5,
2,
2,
8,
3,
3,
4,
5,
5,
7,
5,
0,
4,
1,
1,
1,
2,
1,
0,
1,
1,
1,
0,
4,
2,
3,
1,
0,
0,
2,
0,
0,
3,
0,
1,
0,
0,
0,
0,
0,
0,
0,
1,
0,
0,
0,
0,
0,
0,
1,
0,
0,
0,
0,
0,
0,
0,
0,
0,
1,
0,
0,
0,
0,
1,
0,
0,
0,
0,
0,
0,
0,
0,
0,
0,
0,
0,
0,
0,
0,
0,
0,
0,
0,
0,
0,
0,
0,
0,
0,
0,
0,
0,
0,
0,
0,
0,
0,
0,
0,
0,
0,
0,
0,
0,
0,
0,
0,
0,
0,
0,
0,
0,
0,
0,
0,
0,
0,
0,
0,
0,
0,
0,
0,
0,
0,
0,
0,
0,
0,
0,
0,
0,
0,
0,
0,
0,
0,
0,
0,
0,
0,
0,
0,
0,
0,
0,
0,
0,
0,
0,
0,
0,
0,
0,
0,
0,
0,
0,
0,
0,
0,
0,
0,
0,
0,
0,
0,
0,
0,
0,
0,
0,
0,
0,
0,
0,
#ENDOFDATA   :