File: N132962/Standards/15 keV/BaF2 std.msa
#FORMAT      : EMSA/MAS Spectral Data File
#VERSION     : 1.0
#TITLE       : BaF2 standard for 'N132962' detector
#NPOINTS     : 4096
#NCOLUMNS    : 1
#XUNITS      : eV
#YUNITS      : counts
#DATATYPE    : Y
#SIGNALTYPE  : EDS
#XLABEL      : Energy (eV)
#YLABEL      : Counts
#XPERCHAN -eV: 9.99778
#OFFSET   -eV: 1.69135
#CHOFFSET    : 0
#DATE        : 26-Sep-2025
#TIME        : 19:07:00
#OWNER       : Unknown
#ELEVANGLE   : 35
#BEAMKV   -kV: 15
#LIVETIME  -s: 1435.99
#REALTIME  -s: 1555.26
#PROBECUR -nA: 1.21626
##WORKING -mm: 15
##D2STDCMP   : BaF2,(F:21.6724),(Ba:78.3276)
##SIMILAR    : 2.4
#SPECTRUM    :
849,
11890,
118999,
65359,
263456,
870980,
46173,
50005,
33683,
33763,
35555,
37837,
40528,
43992,
36769,
37171,
36921,
36707,
35959,
37673,
35107,
33266,
33649,
31434,
31211,
29548,
28726,
27851,
40388,
28913,
26573,
58322,
463302,
31554,
108724,
144862,
36917,
89386,
19810,
30196,
29907,
22827,
19938,
15585,
13832,
14093,
14895,
12940,
12618,
11967,
12117,
11811,
11095,
11087,
10895,
10376,
9968,
9893,
9677,
9231,
8708,
8541,
8204,
8076,
7777,
7443,
7239,
6962,
6707,
6458,
6201,
5935,
5698,
5420,
5269,
4814,
4799,
4470,
4421,
4158,
3972,
3726,
3551,
3330,
3094,
2952,
2789,
2606,
2333,
2264,
2126,
1925,
1744,
1611,
1526,
1288,
1232,
1082,
912,
808,
688,
552,
469,
385,
253,
157,
64,
26,
17,
11,
12,
12,
10,
14,
17,
10,
13,
9,
10,
12,
8,
10,
13,
15,
10,
10,
9,
7,
7,
3,
5,
4,
5,
5,
5,
3,
6,
2,
4,
7,
2,
3,
3,
2,
3,
0,
1,
2,
1,
0,
2,
0,
0,
3,
0,
1,
0,
2,
0,
1,
0,
0,
0,
0,
1,
0,
0,
0,
0,
2,
0,
0,
0,
0,
0,
0,
0,
0,
0,
1,
1,
0,
0,
0,
0,
0,
0,
0,
0,
0,
0,
0,
1,
0,
0,
0,
0,
0,
0,
0,
0,
0,
0,
0,
0,
0,
0,
0,
0,
0,
0,
0,
0,
0,
0,
0,
0,
0,
0,
0,
0,
0,
0,
0,
0,
0,
0,
0,
0,
0,
0,
0,
0,
0,
0,
0,
0,
0,
0,
0,
0,
0,
0,
0,
0,
0,
0,
0,
0,
0,
0,
0,
0,
0,
0,
0,
0,
0,
0,
0,
0,
0,
0,
0,
0,
0,
0,
0,
0,
0,
0,
0,
0,
0,
0,
0,
0,
0,
0,
0,
0,
0,
0,
0,
0,
0,
0,
0,
0,
0,
0,
0,
0,
0,
#ENDOFDATA   :