File: N132962/Standards/15 keV/Bi std.msa
#FORMAT      : EMSA/MAS Spectral Data File
#VERSION     : 1.0
#TITLE       : Bi standard for 'N132962' detector
#NPOINTS     : 4096
#NCOLUMNS    : 1
#XUNITS      : eV
#YUNITS      : counts
#DATATYPE    : Y
#SIGNALTYPE  : EDS
#XLABEL      : Energy (eV)
#YLABEL      : Counts
#XPERCHAN -eV: 9.99778
#OFFSET   -eV: 1.69135
#CHOFFSET    : 0
#DATE        : 26-Sep-2025
#TIME        : 18:57:00
#OWNER       : Unknown
#ELEVANGLE   : 35
#BEAMKV   -kV: 15
#LIVETIME  -s: 1927.62
#REALTIME  -s: 2127.5
#PROBECUR -nA: 1.21626
##WORKING -mm: 15
##D2STDCMP   : Bi,(Bi:100.0000)
##SIMILAR    : 1.2
#SPECTRUM    :
161,
24836,
162775,
62786,
80231,
115301,
88764,
86493,
90077,
94977,
99234,
101843,
103766,
130528,
115176,
89887,
119513,
1034414,
1166440,
94068,
75827,
50083,
54736,
66382,
48596,
46664,
47886,
45384,
46336,
44078,
43874,
43351,
42950,
42111,
42235,
44122,
41813,
39689,
40023,
40104,
37133,
36412,
36249,
35020,
33688,
35393,
39445,
31317,
30605,
29846,
29975,
28613,
27378,
27628,
26182,
25110,
24450,
23650,
23406,
22656,
21850,
21143,
20416,
19872,
19305,
18440,
17985,
18168,
17336,
16372,
15685,
15160,
14531,
14091,
13778,
13166,
13878,
23806,
18074,
11326,
10475,
9983,
9791,
8985,
8437,
8312,
7680,
7301,
6811,
6807,
6222,
5827,
6686,
6941,
4794,
4522,
4031,
3322,
3118,
2849,
2394,
2069,
1817,
1489,
1201,
886,
539,
206,
82,
71,
61,
56,
39,
51,
50,
43,
37,
38,
48,
40,
33,
42,
28,
33,
40,
35,
27,
34,
24,
19,
35,
15,
17,
17,
14,
14,
12,
21,
9,
17,
13,
11,
12,
9,
4,
9,
10,
11,
10,
11,
8,
8,
9,
12,
4,
7,
6,
7,
7,
6,
5,
2,
7,
2,
3,
1,
6,
1,
6,
2,
2,
4,
2,
0,
1,
1,
0,
3,
2,
1,
1,
0,
1,
1,
1,
1,
0,
2,
0,
0,
1,
0,
0,
0,
0,
0,
0,
0,
0,
0,
1,
1,
0,
0,
0,
0,
0,
0,
0,
0,
0,
0,
0,
0,
0,
0,
0,
0,
0,
0,
0,
0,
0,
0,
0,
0,
0,
0,
0,
0,
0,
0,
0,
0,
0,
0,
0,
0,
0,
0,
0,
0,
0,
0,
0,
0,
0,
0,
0,
0,
0,
0,
0,
0,
0,
0,
0,
0,
0,
0,
0,
0,
0,
0,
0,
0,
0,
0,
0,
0,
0,
0,
0,
0,
0,
0,
0,
0,
0,
0,
0,
0,
0,
0,
0,
0,
0,
0,
0,
0,
0,
0,
0,
0,
#ENDOFDATA   :