File: N132962/Standards/15 keV/C std.msa
#FORMAT      : EMSA/MAS Spectral Data File
#VERSION     : 1.0
#TITLE       : C standard for 'N132962' detector
#NPOINTS     : 4096
#NCOLUMNS    : 1
#XUNITS      : eV
#YUNITS      : counts
#DATATYPE    : Y
#SIGNALTYPE  : EDS
#XLABEL      : Energy (eV)
#YLABEL      : Counts
#XPERCHAN -eV: 9.99778
#OFFSET   -eV: 1.69135
#CHOFFSET    : 0
#DATE        : 29-Sep-2025
#TIME        : 00:02:00
#OWNER       : Unknown
#ELEVANGLE   : 35
#BEAMKV   -kV: 15
#LIVETIME  -s: 1202.34
#REALTIME  -s: 1269.58
#PROBECUR -nA: 1.21151
##WORKING -mm: 15
##D2STDCMP   : C,(C:100.0000)
##SIMILAR    : 1.1
#SPECTRUM    :
111,
7508,
2798551,
4352,
17813,
8744,
10990,
12862,
13999,
13905,
13633,
13151,
12366,
11535,
9253,
8648,
8056,
7443,
6736,
6503,
5970,
5499,
5059,
4961,
4552,
4476,
4047,
3817,
3420,
3460,
3225,
3104,
2894,
2795,
2715,
2468,
2433,
2308,
2167,
2098,
1987,
1857,
1882,
1718,
1550,
1609,
1659,
1377,
1365,
1327,
1264,
1183,
1136,
1033,
1022,
982,
959,
861,
855,
782,
784,
681,
732,
620,
662,
603,
572,
564,
499,
443,
431,
406,
390,
396,
383,
354,
335,
299,
279,
267,
237,
260,
235,
228,
169,
156,
159,
165,
133,
123,
120,
120,
96,
98,
70,
70,
74,
58,
50,
39,
27,
27,
25,
15,
12,
8,
5,
1,
0,
0,
0,
0,
0,
0,
0,
0,
0,
0,
0,
0,
0,
0,
0,
2,
0,
0,
0,
0,
0,
0,
0,
0,
0,
0,
0,
0,
0,
0,
0,
0,
0,
0,
0,
0,
0,
0,
0,
0,
1,
0,
0,
0,
1,
0,
0,
0,
0,
0,
0,
0,
0,
0,
0,
0,
0,
0,
0,
0,
0,
0,
0,
0,
0,
0,
0,
0,
0,
0,
0,
0,
0,
0,
0,
0,
0,
0,
0,
0,
0,
0,
0,
0,
0,
0,
0,
0,
0,
0,
0,
0,
0,
0,
0,
0,
0,
0,
0,
0,
0,
0,
0,
0,
0,
0,
0,
0,
0,
0,
0,
0,
0,
0,
0,
0,
0,
0,
0,
0,
0,
0,
0,
0,
0,
0,
0,
0,
0,
0,
0,
0,
0,
0,
0,
0,
0,
0,
0,
0,
0,
0,
0,
0,
0,
0,
0,
0,
0,
0,
0,
0,
0,
0,
0,
0,
0,
0,
0,
0,
0,
0,
0,
0,
0,
0,
0,
0,
0,
0,
0,
0,
0,
0,
0,
0,
0,
0,
0,
0,
0,
0,
0,
0,
0,
0,
#ENDOFDATA   :