File: N132962/Standards/15 keV/CaF2 std.msa
#FORMAT      : EMSA/MAS Spectral Data File
#VERSION     : 1.0
#TITLE       : CaF2 standard for 'N132962' detector
#NPOINTS     : 4096
#NCOLUMNS    : 1
#XUNITS      : eV
#YUNITS      : counts
#DATATYPE    : Y
#SIGNALTYPE  : EDS
#XLABEL      : Energy (eV)
#YLABEL      : Counts
#XPERCHAN -eV: 9.99778
#OFFSET   -eV: 1.69135
#CHOFFSET    : 0
#DATE        : 28-Sep-2025
#TIME        : 17:36:00
#OWNER       : Unknown
#ELEVANGLE   : 35
#BEAMKV   -kV: 15
#LIVETIME  -s: 2160.341
#REALTIME  -s: 2286.88
#PROBECUR -nA: 1.21461
##WORKING -mm: 15
##D2STDCMP   : CaF2,(F:48.6672),(Ca:51.3328)
##SIMILAR    : 1.5
#SPECTRUM    :
347,
4061,
315740,
24975,
51678,
1003298,
26087,
31449,
36233,
41041,
43038,
42935,
43665,
43379,
52866,
34763,
34652,
31520,
30096,
28754,
27062,
26167,
25309,
24666,
22609,
31821,
878807,
297258,
55246,
142916,
14181,
16505,
13426,
12967,
12321,
12068,
11672,
11313,
11009,
10690,
10394,
9857,
9411,
9042,
8925,
8734,
8441,
7684,
7463,
7182,
7134,
6772,
6835,
7317,
6236,
6058,
5622,
5356,
5089,
4972,
4710,
4465,
4324,
4090,
4046,
3798,
3733,
3451,
3339,
3255,
3113,
2966,
2701,
2592,
2535,
2420,
2231,
2172,
2025,
1901,
1807,
1665,
1616,
1398,
1369,
1284,
1247,
1117,
1057,
974,
869,
804,
693,
717,
566,
548,
477,
450,
361,
327,
308,
250,
189,
157,
115,
94,
49,
17,
9,
2,
9,
6,
3,
2,
4,
3,
3,
7,
4,
1,
1,
4,
7,
3,
0,
5,
2,
0,
3,
0,
0,
3,
1,
1,
0,
3,
0,
0,
0,
0,
0,
1,
1,
0,
0,
0,
1,
0,
0,
0,
0,
0,
0,
1,
0,
0,
0,
0,
0,
1,
0,
0,
0,
0,
0,
0,
0,
1,
0,
0,
0,
0,
0,
0,
0,
0,
0,
0,
0,
0,
0,
0,
0,
0,
1,
0,
0,
0,
0,
0,
0,
0,
0,
0,
0,
0,
0,
0,
0,
0,
0,
0,
0,
0,
0,
0,
0,
0,
0,
0,
0,
0,
0,
0,
0,
0,
0,
0,
0,
0,
0,
0,
0,
0,
0,
0,
0,
0,
0,
0,
0,
0,
0,
0,
0,
0,
0,
0,
0,
0,
0,
0,
0,
0,
0,
0,
0,
0,
0,
0,
0,
0,
0,
0,
0,
0,
0,
0,
0,
0,
0,
0,
0,
0,
0,
0,
0,
0,
0,
0,
0,
0,
0,
0,
0,
0,
0,
0,
0,
0,
0,
0,
0,
0,
0,
0,
0,
0,
0,
0,
0,
0,
0,
0,
#ENDOFDATA   :