File: N132962/Standards/15 keV/Cd std.msa
#FORMAT      : EMSA/MAS Spectral Data File
#VERSION     : 1.0
#TITLE       : Cd standard for 'N132962' detector
#NPOINTS     : 4096
#NCOLUMNS    : 1
#XUNITS      : eV
#YUNITS      : counts
#DATATYPE    : Y
#SIGNALTYPE  : EDS
#XLABEL      : Energy (eV)
#YLABEL      : Counts
#XPERCHAN -eV: 9.99778
#OFFSET   -eV: 1.69135
#CHOFFSET    : 0
#DATE        : 26-Sep-2025
#TIME        : 14:43:00
#OWNER       : Unknown
#ELEVANGLE   : 35
#BEAMKV   -kV: 15
#LIVETIME  -s: 1921.16
#REALTIME  -s: 2100.06
#PROBECUR -nA: 1.22014
##WORKING -mm: 15
##D2STDCMP   : Cd,(Cd:100.0000)
##SIMILAR    : 1.4
#SPECTRUM    :
191,
17214,
303230,
87534,
53476,
47706,
50193,
54790,
60435,
67687,
95022,
82674,
81541,
81663,
70109,
68371,
67043,
65482,
64970,
79285,
112796,
85079,
805375,
390991,
585783,
199986,
70461,
59217,
49739,
33130,
30317,
30186,
30304,
29763,
29492,
28952,
28501,
27814,
27530,
27023,
26268,
25598,
25188,
24171,
24125,
25109,
25377,
22353,
21736,
20603,
20374,
19581,
18730,
18502,
17875,
17075,
16605,
16067,
15675,
15180,
14547,
14152,
13627,
13164,
12916,
12248,
11908,
11308,
11096,
10633,
10284,
9922,
9585,
9019,
8681,
8268,
8077,
7571,
7202,
6994,
6589,
6366,
5959,
5704,
5251,
4968,
4706,
4335,
4190,
4031,
3600,
3345,
3147,
2847,
2688,
2488,
2264,
2012,
1757,
1580,
1312,
1155,
991,
815,
590,
435,
270,
91,
37,
42,
37,
48,
26,
26,
22,
27,
26,
17,
15,
20,
20,
23,
19,
20,
9,
30,
19,
11,
18,
10,
9,
8,
8,
10,
9,
8,
7,
7,
6,
1,
2,
8,
7,
0,
1,
5,
2,
2,
1,
5,
2,
3,
3,
3,
5,
0,
1,
3,
0,
1,
2,
1,
0,
0,
0,
1,
0,
2,
0,
0,
0,
0,
4,
0,
0,
0,
0,
1,
1,
0,
0,
0,
1,
0,
0,
0,
1,
0,
1,
0,
0,
0,
0,
0,
0,
0,
0,
0,
0,
0,
0,
0,
0,
0,
0,
0,
0,
0,
0,
0,
0,
0,
0,
0,
0,
0,
0,
0,
0,
0,
0,
0,
0,
0,
0,
0,
0,
0,
0,
0,
0,
0,
0,
0,
0,
0,
0,
0,
0,
0,
0,
0,
0,
0,
0,
0,
0,
0,
0,
0,
0,
0,
0,
0,
0,
0,
0,
0,
0,
0,
0,
0,
0,
0,
0,
0,
0,
0,
0,
0,
0,
0,
0,
0,
0,
0,
0,
0,
0,
0,
0,
0,
0,
0,
0,
0,
0,
0,
0,
0,
0,
0,
0,
0,
#ENDOFDATA   :