File: N132962/Standards/15 keV/CeAl2 std.msa
#FORMAT      : EMSA/MAS Spectral Data File
#VERSION     : 1.0
#TITLE       : CeAl2 standard for 'N132962' detector
#NPOINTS     : 4096
#NCOLUMNS    : 1
#XUNITS      : eV
#YUNITS      : counts
#DATATYPE    : Y
#SIGNALTYPE  : EDS
#XLABEL      : Energy (eV)
#YLABEL      : Counts
#XPERCHAN -eV: 9.99778
#OFFSET   -eV: 1.69135
#CHOFFSET    : 0
#DATE        : 27-Sep-2025
#TIME        : 19:56:00
#OWNER       : Unknown
#ELEVANGLE   : 35
#BEAMKV   -kV: 15
#LIVETIME  -s: 1679.22
#REALTIME  -s: 1808.8
#PROBECUR -nA: 1.21162
##WORKING -mm: 15
##D2STDCMP   : CeAl2,(Al:27.8047),(Ce:72.1953)
##SIMILAR    : 1.1
#SPECTRUM    :
168,
3704,
92535,
60286,
88502,
233404,
175716,
54796,
66589,
48549,
115656,
383538,
40998,
42942,
38733,
39971,
40504,
40616,
39674,
39119,
38447,
38516,
39863,
36207,
34948,
34613,
33015,
31987,
31273,
30287,
33225,
39398,
28056,
29325,
175034,
245563,
26415,
84332,
160780,
36046,
92985,
26995,
19897,
42065,
22589,
26824,
19130,
16480,
14733,
14533,
14098,
13836,
13322,
13240,
12565,
12140,
11890,
11575,
11287,
10963,
10384,
10075,
9943,
9583,
9158,
8820,
8501,
8294,
8064,
7925,
7447,
7008,
7040,
6694,
6385,
6080,
5676,
5524,
5473,
4908,
4703,
4548,
4364,
4077,
3855,
3634,
3266,
3245,
2981,
2705,
2593,
2417,
2281,
2002,
1906,
1753,
1602,
1356,
1190,
1096,
949,
794,
683,
528,
441,
250,
192,
67,
23,
17,
21,
12,
20,
28,
11,
9,
18,
9,
16,
11,
9,
18,
10,
9,
19,
9,
11,
6,
8,
9,
6,
9,
10,
7,
2,
2,
3,
8,
3,
6,
2,
4,
5,
4,
2,
1,
1,
0,
1,
1,
0,
2,
1,
0,
1,
1,
2,
0,
1,
2,
0,
1,
0,
1,
1,
0,
1,
0,
1,
1,
0,
0,
0,
0,
0,
0,
1,
0,
0,
0,
1,
0,
0,
0,
0,
0,
0,
0,
0,
0,
0,
0,
0,
0,
0,
0,
0,
1,
0,
0,
0,
0,
0,
0,
0,
0,
0,
0,
0,
0,
0,
0,
0,
0,
0,
0,
0,
0,
0,
0,
0,
0,
0,
0,
0,
0,
0,
0,
0,
0,
0,
0,
0,
0,
0,
0,
0,
0,
0,
0,
0,
0,
0,
0,
0,
0,
0,
0,
0,
0,
0,
0,
0,
0,
0,
0,
0,
0,
0,
0,
0,
0,
0,
0,
0,
0,
0,
0,
0,
0,
0,
0,
0,
0,
0,
0,
0,
0,
0,
0,
0,
0,
0,
0,
0,
0,
0,
0,
0,
0,
0,
0,
0,
0,
#ENDOFDATA   :