File: N132962/Standards/15 keV/CeO2 std.msa
#FORMAT      : EMSA/MAS Spectral Data File
#VERSION     : 1.0
#TITLE       : CeO2 standard for 'N132962' detector
#NPOINTS     : 4096
#NCOLUMNS    : 1
#XUNITS      : eV
#YUNITS      : counts
#DATATYPE    : Y
#SIGNALTYPE  : EDS
#XLABEL      : Energy (eV)
#YLABEL      : Counts
#XPERCHAN -eV: 9.99778
#OFFSET   -eV: 1.69135
#CHOFFSET    : 0
#DATE        : 26-Sep-2025
#TIME        : 15:57:00
#OWNER       : Unknown
#ELEVANGLE   : 35
#BEAMKV   -kV: 15
#LIVETIME  -s: 1916.18
#REALTIME  -s: 2061.03
#PROBECUR -nA: 1.22066
##WORKING -mm: 15
##D2STDCMP   : CeO2,(O:18.5912),(Ce:81.4088)
##SIMILAR    : 1.1
#SPECTRUM    :
210,
11757,
164008,
114683,
427661,
214671,
194612,
48702,
68095,
46620,
47774,
48837,
52092,
53417,
48213,
48510,
48765,
48321,
48304,
47019,
46033,
45418,
47546,
42550,
41154,
41377,
39144,
37959,
36817,
35487,
39259,
47145,
33351,
34397,
214768,
304404,
31341,
102144,
200284,
44213,
114211,
32507,
23469,
50197,
26166,
31719,
23798,
19055,
16975,
16765,
16761,
15923,
15341,
15217,
14671,
14093,
13800,
13278,
12955,
12669,
12120,
11707,
11351,
10882,
10560,
10223,
9847,
9506,
9300,
9056,
8665,
8322,
8083,
7700,
7235,
6914,
6696,
6397,
6127,
5810,
5349,
5099,
4719,
4597,
4405,
4102,
3884,
3495,
3374,
3163,
2869,
2714,
2351,
2339,
2001,
1781,
1658,
1489,
1278,
1089,
953,
764,
604,
428,
298,
142,
39,
34,
21,
23,
18,
23,
19,
17,
18,
17,
12,
24,
19,
13,
17,
26,
20,
17,
19,
16,
14,
13,
11,
15,
16,
6,
7,
16,
5,
10,
7,
3,
7,
4,
4,
4,
3,
3,
2,
5,
0,
4,
2,
1,
2,
4,
1,
0,
2,
2,
1,
1,
0,
0,
1,
1,
0,
1,
1,
2,
1,
1,
0,
0,
0,
0,
0,
0,
1,
0,
0,
0,
0,
0,
0,
0,
0,
0,
1,
0,
1,
0,
0,
0,
0,
0,
0,
0,
0,
0,
0,
0,
0,
0,
0,
0,
0,
0,
0,
0,
0,
0,
0,
0,
0,
0,
0,
0,
0,
0,
0,
0,
0,
0,
0,
0,
0,
0,
0,
0,
0,
0,
0,
0,
0,
0,
0,
0,
0,
0,
0,
0,
0,
0,
0,
0,
0,
0,
0,
0,
0,
0,
0,
0,
0,
0,
0,
0,
0,
0,
0,
0,
0,
0,
0,
0,
0,
0,
0,
0,
0,
0,
0,
0,
0,
0,
0,
0,
0,
0,
0,
0,
0,
0,
0,
0,
0,
0,
0,
0,
0,
0,
0,
0,
0,
0,
0,
0,
#ENDOFDATA   :