File: N132962/Standards/15 keV/CeP5O14 std.msa
#FORMAT      : EMSA/MAS Spectral Data File
#VERSION     : 1.0
#TITLE       : CeP5O14 standard for 'N132962' detector
#NPOINTS     : 4096
#NCOLUMNS    : 1
#XUNITS      : eV
#YUNITS      : counts
#DATATYPE    : Y
#SIGNALTYPE  : EDS
#XLABEL      : Energy (eV)
#YLABEL      : Counts
#XPERCHAN -eV: 9.99778
#OFFSET   -eV: 1.69135
#CHOFFSET    : 0
#DATE        : 17-Mar-2025
#TIME        : 17:06:00
#OWNER       : Unknown
#ELEVANGLE   : 35
#BEAMKV   -kV: 15
#LIVETIME  -s: 1438.64
#REALTIME  -s: 1518.4
#PROBECUR -nA: 1.0263
##WORKING -mm: 15
##D2STDCMP   : CeP5O14,(O:43.1597),(P:29.8415),(Ce:26.9988)
##SIMILAR    : 2.1
#SPECTRUM    :
155,
2011,
93710,
53508,
411569,
38947,
44081,
25141,
31212,
25561,
26086,
26677,
27996,
30467,
389515,
117553,
19153,
16760,
19056,
16294,
15430,
15390,
15241,
14316,
13751,
13495,
12811,
12417,
11877,
12160,
11884,
13106,
10195,
10384,
42304,
60640,
9202,
21920,
39602,
10978,
23762,
8796,
7079,
12237,
7363,
8541,
6801,
5840,
5374,
5324,
5020,
4926,
4731,
4748,
4499,
4208,
4061,
3894,
3753,
3657,
3516,
3295,
3232,
3152,
3028,
2819,
2792,
2637,
2491,
2563,
2347,
2217,
2191,
2134,
1907,
1869,
1698,
1596,
1602,
1489,
1367,
1371,
1229,
1133,
1046,
1105,
965,
868,
866,
755,
720,
614,
615,
523,
503,
456,
367,
354,
332,
300,
237,
183,
156,
109,
81,
66,
30,
12,
2,
1,
5,
2,
7,
2,
2,
2,
2,
3,
0,
4,
1,
2,
0,
1,
2,
1,
4,
2,
1,
1,
0,
1,
0,
0,
0,
1,
0,
2,
0,
1,
0,
1,
0,
0,
0,
1,
0,
2,
0,
0,
0,
2,
0,
0,
0,
0,
0,
0,
0,
0,
0,
0,
0,
0,
0,
0,
0,
0,
0,
0,
0,
0,
0,
0,
0,
0,
1,
0,
0,
0,
0,
0,
0,
0,
0,
0,
0,
0,
0,
0,
0,
0,
0,
0,
0,
0,
0,
0,
0,
0,
0,
0,
0,
0,
0,
0,
0,
0,
0,
0,
0,
0,
0,
0,
0,
0,
0,
0,
0,
0,
0,
0,
0,
0,
0,
0,
0,
0,
0,
0,
0,
0,
0,
0,
0,
0,
0,
0,
0,
0,
0,
0,
0,
0,
0,
0,
0,
0,
0,
0,
0,
0,
0,
0,
0,
0,
0,
0,
0,
0,
0,
0,
0,
0,
0,
0,
0,
0,
0,
0,
0,
0,
0,
0,
0,
0,
0,
0,
0,
0,
0,
0,
0,
0,
0,
0,
0,
0,
0,
0,
0,
0,
0,
0,
#ENDOFDATA   :