File: N132962/Standards/15 keV/Co std.msa
#FORMAT      : EMSA/MAS Spectral Data File
#VERSION     : 1.0
#TITLE       : Co standard for 'N132962' detector
#NPOINTS     : 4096
#NCOLUMNS    : 1
#XUNITS      : eV
#YUNITS      : counts
#DATATYPE    : Y
#SIGNALTYPE  : EDS
#XLABEL      : Energy (eV)
#YLABEL      : Counts
#XPERCHAN -eV: 9.99778
#OFFSET   -eV: 1.69135
#CHOFFSET    : 0
#DATE        : 26-Sep-2025
#TIME        : 22:49:00
#OWNER       : Unknown
#ELEVANGLE   : 35
#BEAMKV   -kV: 15
#LIVETIME  -s: 2149.45
#REALTIME  -s: 2308.2
#PROBECUR -nA: 1.21491
##WORKING -mm: 15
##D2STDCMP   : Co,(Co:100.0000)
##SIMILAR    : 1.4
#SPECTRUM    :
228,
3884,
95089,
77789,
132563,
774822,
248922,
30585,
36772,
42623,
47834,
52942,
52090,
53531,
48207,
48021,
48159,
46592,
45387,
45011,
42701,
41143,
39738,
38138,
37039,
35429,
34377,
32879,
31342,
30791,
29248,
28442,
27359,
26465,
25102,
24467,
23534,
25039,
22967,
23166,
20478,
19862,
19788,
18362,
17522,
17997,
19552,
16592,
21080,
472873,
356298,
15897,
13877,
15453,
56436,
81060,
11066,
9683,
9471,
9469,
9236,
8390,
8320,
8125,
7820,
7477,
7344,
6995,
6792,
6630,
6204,
6023,
5740,
5447,
5218,
4939,
4703,
4565,
4313,
4086,
3859,
3753,
3507,
3344,
3051,
2874,
2711,
2611,
2361,
2257,
2065,
1901,
1769,
1608,
1422,
1278,
1258,
1060,
1078,
1254,
765,
623,
544,
404,
412,
243,
116,
37,
25,
22,
20,
25,
14,
22,
15,
19,
13,
16,
10,
10,
8,
14,
18,
14,
11,
8,
16,
12,
11,
15,
9,
5,
12,
4,
5,
14,
6,
3,
2,
10,
5,
2,
5,
3,
3,
3,
2,
3,
4,
5,
1,
0,
0,
1,
0,
0,
0,
1,
0,
0,
1,
0,
1,
0,
0,
1,
0,
0,
0,
0,
0,
0,
0,
0,
0,
0,
0,
0,
0,
0,
0,
0,
0,
0,
1,
0,
0,
0,
0,
0,
0,
0,
0,
0,
0,
0,
0,
0,
0,
0,
0,
0,
0,
0,
0,
0,
0,
0,
0,
0,
0,
0,
0,
0,
0,
0,
0,
0,
0,
0,
0,
0,
0,
0,
0,
0,
0,
0,
0,
0,
0,
0,
0,
0,
0,
0,
0,
0,
0,
0,
0,
0,
0,
0,
0,
0,
0,
0,
0,
0,
0,
0,
0,
0,
0,
0,
0,
0,
0,
0,
0,
0,
0,
0,
0,
0,
0,
0,
0,
0,
0,
0,
0,
0,
0,
0,
0,
0,
0,
0,
0,
0,
0,
0,
0,
0,
0,
0,
0,
0,
0,
0,
0,
0,
#ENDOFDATA   :