File: N132962/Standards/15 keV/Cr std.msa
#FORMAT      : EMSA/MAS Spectral Data File
#VERSION     : 1.0
#TITLE       : Cr standard for 'N132962' detector
#NPOINTS     : 4096
#NCOLUMNS    : 1
#XUNITS      : eV
#YUNITS      : counts
#DATATYPE    : Y
#SIGNALTYPE  : EDS
#XLABEL      : Energy (eV)
#YLABEL      : Counts
#XPERCHAN -eV: 9.99778
#OFFSET   -eV: 1.69135
#CHOFFSET    : 0
#DATE        : 26-Sep-2025
#TIME        : 22:06:00
#OWNER       : Unknown
#ELEVANGLE   : 35
#BEAMKV   -kV: 15
#LIVETIME  -s: 2158.94
#REALTIME  -s: 2318.47
#PROBECUR -nA: 1.21395
##WORKING -mm: 15
##D2STDCMP   : Cr,(Cr:100.0000)
##SIMILAR    : 1.1
#SPECTRUM    :
238,
4254,
81084,
185195,
1184067,
30600,
32003,
38411,
46081,
49177,
52499,
56607,
63102,
60934,
50820,
49467,
48835,
46577,
45031,
43314,
41973,
40058,
38267,
36609,
34782,
34027,
39791,
31670,
29531,
28530,
28515,
26302,
25754,
25067,
23695,
23311,
22714,
26454,
403775,
1065430,
24680,
22321,
128608,
97689,
13463,
14004,
15881,
12767,
12162,
11986,
11916,
11495,
10891,
10825,
10257,
9754,
9412,
9266,
8762,
8621,
8266,
8089,
7687,
7543,
7170,
6898,
6623,
6424,
6105,
5867,
5654,
5466,
5252,
4945,
4749,
4477,
4388,
5243,
4391,
3689,
3519,
3641,
3189,
2906,
2733,
2516,
2359,
2304,
2123,
1886,
1757,
1609,
1470,
1398,
1271,
1191,
1124,
888,
764,
716,
612,
559,
441,
346,
247,
203,
110,
49,
26,
28,
19,
13,
26,
14,
19,
12,
10,
10,
12,
9,
9,
20,
12,
12,
12,
11,
9,
9,
8,
8,
4,
5,
7,
8,
7,
7,
4,
2,
4,
4,
2,
1,
0,
3,
0,
5,
0,
0,
2,
1,
0,
0,
0,
0,
1,
0,
0,
1,
0,
0,
0,
0,
2,
0,
1,
0,
1,
1,
1,
0,
0,
0,
0,
0,
0,
0,
0,
0,
0,
0,
0,
0,
0,
0,
0,
0,
0,
0,
0,
0,
0,
0,
0,
0,
0,
0,
0,
0,
0,
0,
0,
0,
0,
0,
0,
0,
0,
0,
0,
0,
0,
0,
0,
0,
0,
0,
0,
0,
0,
0,
0,
0,
0,
0,
0,
0,
0,
0,
0,
0,
0,
0,
0,
0,
0,
0,
0,
0,
0,
0,
0,
0,
0,
0,
0,
0,
0,
0,
0,
0,
0,
0,
0,
0,
0,
0,
0,
0,
0,
0,
0,
0,
0,
0,
0,
0,
0,
0,
0,
0,
0,
0,
0,
0,
0,
0,
0,
0,
0,
0,
0,
0,
0,
0,
0,
0,
0,
0,
0,
0,
0,
0,
0,
0,
#ENDOFDATA   :