File: N132962/Standards/15 keV/Cr2O3 std.msa
#FORMAT      : EMSA/MAS Spectral Data File
#VERSION     : 1.0
#TITLE       : Cr2O3 standard for 'N132962' detector
#NPOINTS     : 4096
#NCOLUMNS    : 1
#XUNITS      : eV
#YUNITS      : counts
#DATATYPE    : Y
#SIGNALTYPE  : EDS
#XLABEL      : Energy (eV)
#YLABEL      : Counts
#XPERCHAN -eV: 9.99778
#OFFSET   -eV: 1.69135
#CHOFFSET    : 0
#DATE        : 28-Sep-2025
#TIME        : 18:39:00
#OWNER       : Unknown
#ELEVANGLE   : 35
#BEAMKV   -kV: 15
#LIVETIME  -s: 1920.27
#REALTIME  -s: 2056.36
#PROBECUR -nA: 1.21498
##WORKING -mm: 15
##D2STDCMP   : Cr2O3,(O:31.5792),(Cr:68.4208)
##SIMILAR    : 1.1
#SPECTRUM    :
182,
3570,
126499,
183607,
1037566,
21677,
24038,
32827,
32956,
36760,
39390,
41537,
43130,
42139,
35729,
34943,
33869,
32812,
31316,
30008,
28335,
27182,
25845,
24415,
23419,
22587,
25300,
20813,
19567,
18961,
18548,
17468,
16602,
16305,
15682,
14765,
14549,
16618,
225276,
591639,
15287,
14133,
74943,
55696,
9024,
8917,
9494,
8398,
8054,
7748,
7571,
7380,
7029,
6871,
6653,
6426,
5984,
6057,
5771,
5479,
5308,
5141,
4867,
4696,
4399,
4315,
4230,
3938,
3815,
3848,
3375,
3355,
3283,
3104,
2861,
2701,
2644,
2917,
2550,
2306,
2090,
2168,
1824,
1822,
1651,
1491,
1383,
1340,
1226,
1172,
1060,
991,
890,
860,
764,
661,
601,
531,
497,
415,
347,
314,
291,
169,
139,
107,
55,
34,
13,
4,
11,
3,
10,
11,
7,
4,
8,
7,
1,
6,
7,
5,
6,
2,
4,
6,
1,
6,
1,
3,
0,
3,
4,
3,
3,
4,
2,
2,
1,
2,
2,
1,
0,
3,
0,
0,
0,
0,
0,
0,
0,
0,
0,
0,
0,
1,
0,
0,
0,
0,
0,
0,
0,
1,
0,
0,
0,
0,
0,
0,
1,
0,
0,
0,
0,
0,
0,
0,
0,
0,
0,
0,
0,
0,
0,
0,
0,
0,
0,
0,
0,
0,
0,
0,
0,
0,
0,
0,
0,
0,
0,
0,
0,
0,
0,
0,
0,
0,
0,
0,
0,
0,
0,
0,
0,
0,
0,
0,
0,
0,
0,
0,
0,
0,
0,
0,
0,
0,
0,
0,
0,
0,
0,
0,
0,
0,
0,
0,
0,
0,
0,
0,
0,
0,
0,
0,
0,
0,
0,
0,
0,
0,
0,
0,
0,
0,
0,
0,
0,
0,
0,
0,
0,
0,
0,
0,
0,
0,
0,
0,
0,
0,
0,
0,
0,
0,
0,
0,
0,
0,
0,
0,
0,
0,
0,
0,
0,
0,
0,
0,
0,
0,
0,
0,
#ENDOFDATA   :