File: N132962/Standards/15 keV/CsBr std.msa
#FORMAT      : EMSA/MAS Spectral Data File
#VERSION     : 1.0
#TITLE       : CsBr standard for 'N132962' detector
#NPOINTS     : 4096
#NCOLUMNS    : 1
#XUNITS      : eV
#YUNITS      : counts
#DATATYPE    : Y
#SIGNALTYPE  : EDS
#XLABEL      : Energy (eV)
#YLABEL      : Counts
#XPERCHAN -eV: 9.99778
#OFFSET   -eV: 1.69135
#CHOFFSET    : 0
#DATE        : 26-Sep-2025
#TIME        : 16:18:00
#OWNER       : Unknown
#ELEVANGLE   : 35
#BEAMKV   -kV: 15
#LIVETIME  -s: 1196.47
#REALTIME  -s: 1290.78
#PROBECUR -nA: 1.21623
##WORKING -mm: 15
##D2STDCMP   : CsBr,(Br:37.5472),(Cs:62.4528)
##SIMILAR    : 4.9
#SPECTRUM    :
122,
3598,
62357,
38220,
159391,
83548,
37282,
47516,
35393,
54281,
92297,
387158,
35795,
34185,
29795,
30799,
33218,
31101,
33434,
30658,
30580,
30737,
29115,
28624,
27467,
26953,
26566,
38040,
25921,
26175,
104538,
218094,
27499,
184908,
49985,
63130,
27762,
21166,
33595,
19259,
20984,
16158,
14446,
14054,
13762,
13736,
14180,
12626,
12552,
11932,
11878,
11229,
10898,
10859,
10339,
9840,
9713,
9346,
9276,
9017,
8537,
8337,
8104,
7804,
7654,
7352,
6966,
6823,
6586,
6300,
6190,
5884,
5605,
5378,
5126,
4792,
4593,
4448,
4290,
4044,
3954,
3749,
3488,
3388,
4106,
7059,
3603,
2649,
2431,
2238,
2093,
2004,
1794,
1620,
1726,
1901,
1357,
1132,
1045,
895,
763,
658,
571,
426,
340,
252,
129,
46,
16,
26,
13,
19,
9,
20,
15,
18,
13,
15,
8,
13,
12,
10,
12,
9,
9,
8,
5,
9,
5,
7,
7,
11,
4,
3,
2,
5,
5,
2,
6,
4,
2,
0,
2,
1,
3,
2,
4,
2,
2,
4,
0,
0,
0,
0,
2,
1,
1,
1,
0,
1,
0,
0,
1,
0,
0,
0,
1,
1,
0,
1,
0,
0,
2,
0,
0,
0,
0,
0,
0,
1,
0,
0,
0,
0,
0,
0,
0,
0,
0,
1,
0,
0,
0,
0,
0,
0,
0,
0,
0,
0,
0,
0,
0,
0,
0,
0,
0,
0,
0,
0,
0,
0,
0,
0,
0,
0,
0,
0,
0,
0,
0,
0,
0,
0,
0,
0,
0,
0,
0,
0,
0,
0,
0,
0,
0,
0,
0,
0,
0,
0,
0,
0,
0,
0,
0,
0,
0,
0,
0,
0,
0,
0,
0,
0,
0,
0,
0,
0,
0,
0,
0,
0,
0,
0,
0,
0,
0,
0,
0,
0,
0,
0,
0,
0,
0,
0,
0,
0,
0,
0,
0,
0,
0,
0,
0,
0,
0,
0,
0,
0,
0,
0,
0,
0,
#ENDOFDATA   :