File: N132962/Standards/15 keV/CsI std.msa
#FORMAT      : EMSA/MAS Spectral Data File
#VERSION     : 1.0
#TITLE       : CsI standard for 'N132962' detector
#NPOINTS     : 4096
#NCOLUMNS    : 1
#XUNITS      : eV
#YUNITS      : counts
#DATATYPE    : Y
#SIGNALTYPE  : EDS
#XLABEL      : Energy (eV)
#YLABEL      : Counts
#XPERCHAN -eV: 9.99778
#OFFSET   -eV: 1.69135
#CHOFFSET    : 0
#DATE        : 29-Sep-2025
#TIME        : 11:15:00
#OWNER       : Unknown
#ELEVANGLE   : 35
#BEAMKV   -kV: 15
#LIVETIME  -s: 1920.36
#REALTIME  -s: 2089.06
#PROBECUR -nA: 1.22564
##WORKING -mm: 15
##D2STDCMP   : CsI,(I:48.8451),(Cs:51.1549)
##SIMILAR    : 1.4
#SPECTRUM    :
234,
20725,
191767,
145648,
362773,
87770,
68028,
69155,
49134,
54441,
59506,
63616,
68497,
69803,
62180,
63785,
65102,
62999,
66456,
60450,
59255,
57197,
55249,
53990,
53148,
70741,
50331,
79801,
551644,
75932,
376103,
382281,
114789,
258733,
96560,
93773,
55304,
36548,
49670,
31451,
33488,
26829,
24678,
24745,
24057,
23681,
23891,
22495,
21880,
21388,
21162,
20426,
19879,
19801,
18939,
18064,
17828,
17338,
16875,
16594,
15681,
15612,
15056,
14451,
14014,
13371,
13021,
12467,
12134,
11522,
11268,
10449,
10365,
9962,
9505,
9385,
8824,
8244,
8141,
7640,
7322,
6891,
6654,
6128,
5866,
5383,
5204,
4829,
4695,
4323,
4000,
3782,
3453,
3191,
2917,
2647,
2468,
2160,
2010,
1737,
1502,
1294,
1065,
880,
689,
470,
221,
68,
48,
55,
42,
38,
35,
40,
31,
27,
20,
22,
26,
22,
21,
33,
27,
26,
29,
39,
20,
29,
20,
13,
14,
9,
12,
6,
14,
8,
12,
8,
8,
6,
5,
3,
5,
3,
4,
3,
3,
0,
7,
4,
5,
1,
1,
3,
2,
2,
1,
3,
0,
0,
1,
0,
2,
3,
2,
0,
1,
2,
2,
0,
0,
0,
0,
1,
0,
0,
1,
0,
0,
0,
0,
0,
1,
0,
1,
0,
0,
0,
0,
0,
0,
0,
0,
0,
0,
0,
0,
0,
0,
0,
0,
0,
0,
0,
0,
0,
0,
0,
0,
0,
0,
0,
0,
0,
0,
0,
0,
0,
0,
0,
0,
0,
0,
0,
0,
0,
0,
0,
0,
0,
0,
0,
0,
0,
0,
0,
0,
0,
0,
0,
0,
0,
0,
0,
0,
0,
0,
0,
0,
0,
0,
0,
0,
0,
0,
0,
0,
0,
0,
0,
0,
0,
0,
0,
0,
0,
0,
0,
0,
0,
0,
0,
0,
0,
0,
0,
0,
0,
0,
0,
0,
0,
0,
0,
0,
0,
0,
0,
0,
0,
0,
0,
0,
0,
#ENDOFDATA   :