File: N132962/Standards/15 keV/Cu std.msa
#FORMAT      : EMSA/MAS Spectral Data File
#VERSION     : 1.0
#TITLE       : Cu standard for 'N132962' detector
#NPOINTS     : 4096
#NCOLUMNS    : 1
#XUNITS      : eV
#YUNITS      : counts
#DATATYPE    : Y
#SIGNALTYPE  : EDS
#XLABEL      : Energy (eV)
#YLABEL      : Counts
#XPERCHAN -eV: 9.99778
#OFFSET   -eV: 1.69135
#CHOFFSET    : 0
#DATE        : 28-Sep-2025
#TIME        : 20:12:00
#OWNER       : Unknown
#ELEVANGLE   : 35
#BEAMKV   -kV: 15
#LIVETIME  -s: 1440.39
#REALTIME  -s: 1577.46
#PROBECUR -nA: 1.21481
##WORKING -mm: 15
##D2STDCMP   : Cu,(Cu:100.0000)
##SIMILAR    : 1.2
#SPECTRUM    :
164,
2645,
98840,
42427,
69749,
92142,
441597,
905280,
22815,
25244,
28778,
33419,
35252,
44105,
31821,
31591,
31303,
31464,
30609,
30518,
29277,
28282,
27396,
26526,
25826,
24495,
24080,
23175,
22265,
21489,
20944,
19771,
19005,
18358,
17845,
17147,
16690,
16206,
15541,
15120,
14361,
13813,
13497,
13188,
12679,
12884,
12215,
11192,
10824,
10575,
10062,
9788,
9363,
9355,
9166,
8868,
12153,
211498,
137707,
8402,
7140,
7148,
7339,
26351,
33297,
5952,
5079,
4867,
4546,
4631,
4687,
4263,
4105,
3802,
3634,
3577,
3350,
3198,
3199,
2938,
2723,
2667,
2574,
2292,
2247,
2041,
2050,
1885,
1709,
1604,
1498,
1372,
1303,
1184,
1100,
954,
850,
783,
699,
613,
518,
445,
365,
294,
221,
178,
96,
36,
13,
15,
13,
16,
10,
17,
43,
78,
36,
7,
13,
10,
19,
35,
16,
12,
9,
12,
7,
10,
10,
8,
8,
8,
4,
7,
7,
2,
3,
1,
2,
3,
3,
1,
5,
1,
2,
1,
3,
1,
1,
3,
2,
0,
1,
1,
0,
2,
1,
0,
1,
1,
0,
0,
0,
0,
0,
0,
1,
0,
0,
0,
0,
0,
0,
1,
0,
0,
1,
1,
0,
0,
0,
0,
0,
0,
0,
0,
0,
0,
0,
0,
0,
1,
0,
0,
0,
0,
0,
0,
0,
0,
0,
0,
0,
0,
0,
0,
0,
0,
0,
0,
0,
0,
0,
0,
0,
0,
0,
0,
0,
0,
0,
0,
0,
0,
0,
0,
0,
0,
0,
0,
0,
0,
0,
0,
0,
0,
0,
0,
0,
0,
0,
0,
0,
0,
0,
0,
0,
0,
0,
0,
0,
0,
0,
0,
0,
0,
0,
0,
0,
0,
0,
0,
0,
0,
0,
0,
0,
0,
0,
0,
0,
0,
0,
0,
0,
0,
0,
0,
0,
0,
0,
0,
0,
0,
0,
0,
0,
0,
0,
0,
0,
0,
0,
0,
#ENDOFDATA   :