File: N132962/Standards/15 keV/Dy std.msa
#FORMAT      : EMSA/MAS Spectral Data File
#VERSION     : 1.0
#TITLE       : Dy standard for 'N132962' detector
#NPOINTS     : 4096
#NCOLUMNS    : 1
#XUNITS      : eV
#YUNITS      : counts
#DATATYPE    : Y
#SIGNALTYPE  : EDS
#XLABEL      : Energy (eV)
#YLABEL      : Counts
#XPERCHAN -eV: 9.99778
#OFFSET   -eV: 1.69135
#CHOFFSET    : 0
#DATE        : 26-Sep-2025
#TIME        : 17:32:00
#OWNER       : Unknown
#ELEVANGLE   : 35
#BEAMKV   -kV: 15
#LIVETIME  -s: 1440.73
#REALTIME  -s: 1565.95
#PROBECUR -nA: 1.21629
##WORKING -mm: 15
##D2STDCMP   : Dy,(Dy:100.0000)
##SIMILAR    : 3.1
#SPECTRUM    :
150,
4656,
86521,
62383,
110943,
110510,
88095,
316551,
92385,
370779,
79637,
73528,
58432,
42993,
37491,
37882,
39210,
40172,
40344,
41396,
40483,
40167,
39627,
39334,
38680,
38264,
37711,
36683,
35708,
34879,
34033,
33680,
32652,
31657,
32112,
30122,
29262,
28396,
27904,
27674,
27291,
38270,
26277,
24520,
23851,
27115,
234109,
114360,
21833,
20418,
20485,
51082,
122241,
35061,
45896,
43020,
15986,
14195,
14693,
15655,
30741,
15730,
16913,
14272,
12117,
11298,
10617,
10418,
10073,
9679,
9386,
9199,
8881,
8497,
8266,
7969,
7624,
7159,
7094,
6603,
6235,
5988,
5893,
5392,
5186,
4955,
4679,
4358,
4192,
3781,
3670,
3318,
3228,
3087,
2625,
2442,
2256,
2083,
1849,
1700,
1405,
1261,
982,
818,
645,
484,
278,
138,
39,
41,
34,
42,
31,
31,
30,
37,
18,
30,
21,
18,
26,
31,
25,
30,
25,
27,
31,
23,
24,
23,
24,
10,
22,
13,
22,
16,
7,
14,
13,
10,
7,
14,
14,
8,
7,
7,
5,
8,
5,
4,
5,
6,
6,
4,
0,
1,
2,
2,
2,
4,
1,
0,
3,
0,
3,
1,
1,
0,
1,
0,
0,
0,
0,
0,
2,
1,
0,
0,
0,
0,
0,
0,
0,
1,
1,
0,
1,
1,
0,
0,
0,
0,
1,
0,
0,
0,
0,
0,
0,
0,
0,
0,
0,
0,
0,
0,
0,
0,
0,
0,
0,
0,
0,
0,
0,
0,
0,
0,
0,
0,
0,
0,
0,
0,
0,
0,
0,
0,
0,
0,
0,
0,
0,
0,
0,
0,
0,
0,
0,
0,
0,
0,
0,
0,
0,
0,
0,
0,
0,
0,
0,
0,
0,
0,
0,
0,
0,
0,
0,
0,
0,
0,
0,
0,
0,
0,
0,
0,
0,
0,
0,
0,
0,
0,
0,
0,
0,
0,
0,
0,
0,
0,
0,
0,
0,
0,
0,
0,
0,
0,
0,
0,
0,
0,
#ENDOFDATA   :