File: N132962/Standards/15 keV/DyP5O14 std.msa
#FORMAT      : EMSA/MAS Spectral Data File
#VERSION     : 1.0
#TITLE       : DyP5O14 standard for 'N132962' detector
#NPOINTS     : 4096
#NCOLUMNS    : 1
#XUNITS      : eV
#YUNITS      : counts
#DATATYPE    : Y
#SIGNALTYPE  : EDS
#XLABEL      : Energy (eV)
#YLABEL      : Counts
#XPERCHAN -eV: 9.99778
#OFFSET   -eV: 1.69135
#CHOFFSET    : 0
#DATE        : 17-Mar-2025
#TIME        : 16:09:00
#OWNER       : Unknown
#ELEVANGLE   : 35
#BEAMKV   -kV: 15
#LIVETIME  -s: 718.616
#REALTIME  -s: 757.888
#PROBECUR -nA: 1.02671
##WORKING -mm: 15
##D2STDCMP   : DyP5O14,(O:41.3751),(P:28.6076),(Dy:30.0173)
##SIMILAR    : 2.7
#SPECTRUM    :
71,
1099,
47820,
25166,
178264,
11760,
14018,
35640,
16663,
60112,
19579,
18703,
16493,
14797,
176707,
53366,
9298,
8380,
9322,
8470,
8097,
8144,
7774,
7687,
7393,
7260,
6819,
6692,
6631,
6397,
6124,
5790,
5672,
5367,
5340,
5060,
4889,
4743,
4383,
4401,
4371,
5353,
4029,
3762,
3690,
3958,
23463,
12277,
3354,
3109,
2995,
5900,
12581,
4265,
5262,
4993,
2373,
2214,
2254,
2185,
3704,
2291,
2285,
2009,
1754,
1608,
1597,
1530,
1468,
1370,
1317,
1260,
1170,
1182,
1044,
1129,
1059,
932,
910,
879,
819,
781,
701,
707,
638,
554,
568,
544,
514,
447,
421,
373,
330,
315,
269,
252,
255,
183,
178,
185,
112,
111,
98,
70,
46,
50,
17,
6,
4,
2,
2,
2,
3,
3,
2,
3,
0,
0,
3,
1,
1,
0,
0,
1,
0,
1,
0,
1,
0,
1,
1,
1,
1,
0,
0,
0,
0,
0,
0,
0,
0,
0,
0,
0,
0,
0,
1,
0,
0,
0,
0,
1,
0,
0,
1,
0,
0,
0,
0,
1,
0,
0,
0,
0,
0,
0,
0,
0,
0,
0,
0,
0,
0,
0,
0,
0,
0,
0,
0,
0,
0,
0,
0,
0,
0,
0,
0,
0,
0,
0,
0,
0,
0,
0,
0,
0,
0,
0,
0,
0,
0,
0,
0,
0,
0,
0,
0,
0,
0,
0,
0,
0,
0,
0,
0,
0,
0,
0,
0,
0,
0,
0,
0,
0,
0,
0,
0,
0,
0,
0,
0,
0,
0,
0,
0,
0,
0,
0,
0,
0,
0,
0,
0,
0,
0,
0,
0,
0,
0,
0,
0,
0,
0,
0,
0,
0,
0,
0,
0,
0,
0,
0,
0,
0,
0,
0,
0,
0,
0,
0,
0,
0,
0,
0,
0,
0,
0,
0,
0,
0,
0,
0,
0,
0,
0,
0,
0,
0,
0,
0,
0,
0,
0,
0,
#ENDOFDATA   :