File: N132962/Standards/15 keV/Er std.msa
#FORMAT      : EMSA/MAS Spectral Data File
#VERSION     : 1.0
#TITLE       : Er standard for 'N132962' detector
#NPOINTS     : 4096
#NCOLUMNS    : 1
#XUNITS      : eV
#YUNITS      : counts
#DATATYPE    : Y
#SIGNALTYPE  : EDS
#XLABEL      : Energy (eV)
#YLABEL      : Counts
#XPERCHAN -eV: 9.99778
#OFFSET   -eV: 1.69135
#CHOFFSET    : 0
#DATE        : 25-Sep-2025
#TIME        : 17:30:00
#OWNER       : Unknown
#ELEVANGLE   : 35
#BEAMKV   -kV: 15
#LIVETIME  -s: 1440.31
#REALTIME  -s: 1546.62
#PROBECUR -nA: 1.20749
##WORKING -mm: 15
##D2STDCMP   : Er,(Er:100.0000)
##SIMILAR    : 15.1
#SPECTRUM    :
136,
4620,
86795,
63012,
217819,
145620,
56639,
66099,
156482,
71020,
597297,
49254,
55702,
48365,
33566,
31743,
34605,
35416,
32628,
33214,
32407,
31839,
31298,
31507,
30557,
30024,
29374,
28368,
27475,
26670,
26017,
25035,
26736,
23992,
23381,
22916,
21989,
21866,
20697,
19924,
19859,
19074,
18574,
19191,
23982,
17387,
16956,
16247,
16211,
82115,
116860,
15619,
13697,
13371,
13237,
30219,
65491,
21118,
29402,
23545,
10555,
9190,
8974,
9141,
10908,
16714,
8795,
10424,
8175,
7475,
6999,
6419,
6315,
6033,
5843,
5723,
5463,
5179,
4877,
4673,
4466,
4219,
3971,
3809,
3637,
3356,
3259,
2961,
2838,
2719,
2453,
2239,
2080,
1858,
1771,
1532,
1438,
1388,
1207,
1036,
885,
782,
662,
522,
394,
282,
169,
71,
34,
35,
17,
21,
21,
14,
28,
17,
11,
15,
9,
10,
10,
22,
12,
16,
15,
18,
15,
7,
5,
11,
11,
8,
7,
5,
9,
3,
4,
6,
6,
6,
5,
4,
7,
2,
6,
5,
2,
3,
3,
5,
6,
2,
3,
1,
3,
1,
3,
0,
1,
2,
0,
0,
3,
1,
0,
0,
0,
0,
1,
0,
1,
0,
0,
0,
0,
0,
1,
0,
1,
0,
0,
0,
0,
0,
0,
0,
0,
1,
0,
0,
0,
0,
0,
0,
0,
0,
0,
0,
0,
0,
0,
0,
0,
0,
0,
0,
0,
0,
0,
0,
0,
0,
0,
0,
0,
0,
0,
0,
0,
0,
0,
0,
0,
0,
0,
0,
0,
0,
0,
0,
0,
0,
0,
0,
0,
0,
0,
0,
0,
0,
0,
0,
0,
0,
0,
0,
0,
0,
0,
0,
0,
0,
0,
0,
0,
0,
0,
0,
0,
0,
0,
0,
0,
0,
0,
0,
0,
0,
0,
0,
0,
0,
0,
0,
0,
0,
0,
0,
0,
0,
0,
0,
0,
0,
0,
0,
0,
0,
0,
0,
0,
0,
0,
0,
#ENDOFDATA   :