File: N132962/Standards/15 keV/ErP5O14 std.msa
#FORMAT      : EMSA/MAS Spectral Data File
#VERSION     : 1.0
#TITLE       : ErP5O14 standard for 'N132962' detector
#NPOINTS     : 4096
#NCOLUMNS    : 1
#XUNITS      : eV
#YUNITS      : counts
#DATATYPE    : Y
#SIGNALTYPE  : EDS
#XLABEL      : Energy (eV)
#YLABEL      : Counts
#XPERCHAN -eV: 9.99778
#OFFSET   -eV: 1.69135
#CHOFFSET    : 0
#DATE        : 17-Mar-2025
#TIME        : 15:59:00
#OWNER       : Unknown
#ELEVANGLE   : 35
#BEAMKV   -kV: 15
#LIVETIME  -s: 959.0286
#REALTIME  -s: 1012
#PROBECUR -nA: 1.0242
##WORKING -mm: 15
##D2STDCMP   : ErP5O14,(O:41.0145),(P:28.3583),(Er:30.6271)
##SIMILAR    : 2.6
#SPECTRUM    :
92,
1523,
65997,
32948,
227893,
15719,
18819,
21743,
40593,
23952,
169864,
21772,
23221,
23167,
230631,
70185,
12752,
11572,
12743,
11242,
10924,
10835,
10656,
10240,
9874,
9878,
9385,
8958,
8795,
8687,
8076,
7934,
7684,
7442,
7040,
6707,
6550,
6599,
6190,
5997,
5748,
5649,
5430,
5410,
6273,
4908,
5030,
4490,
4611,
16563,
23237,
4161,
3788,
3771,
3617,
6707,
13150,
4733,
6339,
5349,
2827,
2573,
2486,
2526,
2765,
3725,
2340,
2527,
2148,
1910,
1871,
1752,
1601,
1590,
1583,
1462,
1337,
1278,
1262,
1160,
1117,
1098,
1015,
918,
937,
803,
765,
726,
660,
615,
503,
501,
489,
454,
386,
361,
288,
259,
238,
216,
186,
135,
124,
95,
67,
50,
17,
5,
2,
2,
2,
4,
1,
1,
2,
3,
4,
2,
2,
2,
0,
2,
0,
1,
1,
2,
4,
1,
1,
0,
1,
1,
1,
1,
0,
0,
1,
1,
1,
0,
0,
1,
0,
1,
0,
0,
1,
0,
0,
0,
1,
0,
0,
0,
0,
0,
0,
0,
0,
0,
0,
0,
0,
0,
0,
0,
0,
0,
0,
0,
0,
0,
0,
0,
0,
0,
0,
0,
0,
0,
0,
0,
0,
0,
0,
0,
0,
0,
0,
0,
0,
0,
0,
0,
0,
0,
0,
0,
0,
0,
0,
0,
0,
0,
0,
0,
0,
0,
0,
0,
0,
0,
0,
0,
0,
0,
0,
0,
0,
0,
0,
0,
0,
0,
0,
0,
0,
0,
0,
0,
0,
0,
0,
0,
0,
0,
0,
0,
0,
0,
0,
0,
0,
0,
0,
0,
0,
0,
0,
0,
0,
0,
0,
0,
0,
0,
0,
0,
0,
0,
0,
0,
0,
0,
0,
0,
0,
0,
0,
0,
0,
0,
0,
0,
0,
0,
0,
0,
0,
0,
0,
0,
0,
0,
0,
0,
0,
0,
0,
0,
0,
0,
0,
0,
#ENDOFDATA   :