File: N132962/Standards/15 keV/EuF3 std.msa
#FORMAT      : EMSA/MAS Spectral Data File
#VERSION     : 1.0
#TITLE       : EuF3 standard for 'N132962' detector
#NPOINTS     : 4096
#NCOLUMNS    : 1
#XUNITS      : eV
#YUNITS      : counts
#DATATYPE    : Y
#SIGNALTYPE  : EDS
#XLABEL      : Energy (eV)
#YLABEL      : Counts
#XPERCHAN -eV: 9.99778
#OFFSET   -eV: 1.69135
#CHOFFSET    : 0
#DATE        : 27-Sep-2025
#TIME        : 20:06:00
#OWNER       : Unknown
#ELEVANGLE   : 35
#BEAMKV   -kV: 15
#LIVETIME  -s: 1441.13
#REALTIME  -s: 1554.23
#PROBECUR -nA: 1.21162
##WORKING -mm: 15
##D2STDCMP   : EuF3,(F:27.2758),(Eu:72.7242)
##SIMILAR    : 7.0
#SPECTRUM    :
158,
3777,
90719,
61613,
91739,
826865,
178009,
66500,
309744,
40294,
46183,
39841,
35120,
37090,
32825,
33237,
33879,
34286,
33772,
33822,
32968,
32645,
31586,
30994,
30223,
29740,
28489,
28331,
27293,
27567,
25800,
24959,
24363,
23542,
23001,
22074,
22095,
32203,
20685,
20050,
20290,
76533,
232081,
20018,
17125,
21415,
129658,
45804,
23746,
55762,
14879,
12850,
12929,
24150,
17659,
14224,
13964,
11077,
10238,
9514,
9189,
8956,
8844,
8452,
8099,
7992,
7509,
7360,
7084,
7061,
6700,
6411,
6076,
5851,
5754,
5530,
5276,
5001,
4676,
4526,
4459,
4100,
3812,
3709,
3530,
3296,
3161,
2896,
2794,
2506,
2357,
2158,
2093,
1883,
1680,
1596,
1499,
1237,
1143,
1033,
872,
740,
627,
542,
403,
283,
151,
60,
19,
14,
19,
16,
23,
9,
16,
16,
10,
21,
14,
11,
9,
10,
17,
17,
18,
10,
15,
14,
7,
9,
6,
10,
6,
8,
8,
8,
5,
10,
7,
9,
4,
3,
1,
2,
8,
3,
1,
2,
0,
4,
1,
2,
3,
1,
3,
3,
0,
0,
2,
2,
0,
0,
0,
1,
0,
0,
0,
1,
2,
1,
0,
1,
0,
1,
1,
0,
0,
0,
0,
0,
0,
0,
0,
0,
0,
0,
1,
0,
0,
0,
0,
0,
0,
0,
0,
0,
0,
0,
1,
0,
0,
0,
0,
0,
0,
0,
0,
0,
0,
0,
0,
0,
0,
0,
0,
0,
0,
0,
0,
0,
0,
0,
0,
0,
0,
0,
0,
0,
0,
0,
0,
0,
0,
0,
0,
0,
0,
0,
0,
0,
0,
0,
0,
0,
0,
0,
0,
0,
0,
0,
0,
0,
0,
0,
0,
0,
0,
0,
0,
0,
0,
0,
0,
0,
0,
0,
0,
0,
0,
0,
0,
0,
0,
0,
0,
0,
0,
0,
0,
0,
0,
0,
0,
0,
0,
0,
0,
0,
0,
0,
0,
0,
0,
0,
#ENDOFDATA   :