File: N132962/Standards/15 keV/EuP5O14 std.msa
#FORMAT      : EMSA/MAS Spectral Data File
#VERSION     : 1.0
#TITLE       : EuP5O14 standard for 'N132962' detector
#NPOINTS     : 4096
#NCOLUMNS    : 1
#XUNITS      : eV
#YUNITS      : counts
#DATATYPE    : Y
#SIGNALTYPE  : EDS
#XLABEL      : Energy (eV)
#YLABEL      : Counts
#XPERCHAN -eV: 9.99778
#OFFSET   -eV: 1.69135
#CHOFFSET    : 0
#DATE        : 17-Mar-2025
#TIME        : 16:31:00
#OWNER       : Unknown
#ELEVANGLE   : 35
#BEAMKV   -kV: 15
#LIVETIME  -s: 1438.35
#REALTIME  -s: 1517.08
#PROBECUR -nA: 1.02671
##WORKING -mm: 15
##D2STDCMP   : EuP5O14,(O:42.1963),(P:29.1755),(Eu:28.6282)
##SIMILAR    : 2.3
#SPECTRUM    :
143,
2288,
95744,
51879,
385454,
23729,
59399,
31268,
134370,
28155,
31044,
28594,
27596,
29553,
358601,
108865,
18911,
17048,
19140,
16664,
15939,
15804,
15152,
14760,
14542,
13894,
13294,
12839,
12398,
12547,
11291,
10990,
10753,
10299,
10109,
9624,
9588,
12067,
8862,
8509,
8463,
22824,
64667,
8000,
7076,
8205,
36447,
14213,
8356,
16822,
6013,
5408,
5224,
8258,
6161,
5511,
5323,
4413,
4160,
3906,
3706,
3492,
3460,
3385,
3263,
3056,
2915,
2847,
2717,
2585,
2520,
2414,
2332,
2128,
2133,
2003,
1929,
1808,
1730,
1656,
1523,
1471,
1358,
1283,
1147,
1108,
1086,
1054,
953,
857,
761,
760,
697,
597,
571,
508,
420,
418,
346,
265,
251,
201,
174,
133,
91,
71,
35,
13,
5,
4,
3,
7,
3,
1,
3,
0,
1,
2,
1,
0,
1,
2,
2,
2,
0,
1,
2,
1,
3,
1,
1,
5,
0,
1,
1,
1,
1,
2,
0,
0,
0,
0,
1,
1,
0,
1,
0,
0,
0,
0,
0,
0,
0,
0,
0,
1,
0,
0,
1,
0,
0,
0,
0,
0,
0,
0,
0,
0,
0,
0,
0,
0,
0,
0,
0,
0,
0,
0,
0,
0,
0,
0,
0,
0,
0,
0,
0,
0,
0,
0,
0,
0,
0,
0,
0,
0,
0,
0,
0,
0,
0,
0,
0,
0,
0,
0,
0,
0,
0,
0,
0,
0,
0,
0,
0,
0,
0,
0,
0,
0,
0,
0,
0,
0,
0,
0,
0,
0,
0,
0,
0,
0,
0,
0,
0,
0,
0,
0,
0,
0,
0,
0,
0,
0,
0,
0,
0,
0,
0,
0,
0,
0,
0,
0,
0,
0,
0,
0,
0,
0,
0,
0,
0,
0,
0,
0,
0,
0,
0,
0,
0,
0,
0,
0,
0,
0,
0,
0,
0,
0,
0,
0,
0,
0,
0,
0,
0,
0,
0,
0,
0,
0,
0,
0,
#ENDOFDATA   :