File: N132962/Standards/15 keV/Fe std.msa
#FORMAT      : EMSA/MAS Spectral Data File
#VERSION     : 1.0
#TITLE       : Fe standard for 'N132962' detector
#NPOINTS     : 4096
#NCOLUMNS    : 1
#XUNITS      : eV
#YUNITS      : counts
#DATATYPE    : Y
#SIGNALTYPE  : EDS
#XLABEL      : Energy (eV)
#YLABEL      : Counts
#XPERCHAN -eV: 9.99778
#OFFSET   -eV: 1.69135
#CHOFFSET    : 0
#DATE        : 25-Sep-2025
#TIME        : 22:32:00
#OWNER       : Unknown
#ELEVANGLE   : 35
#BEAMKV   -kV: 15
#LIVETIME  -s: 1919.63
#REALTIME  -s: 2057.75
#PROBECUR -nA: 1.20962
##WORKING -mm: 15
##D2STDCMP   : Fe,(Fe:100.0000)
##SIMILAR    : 1.1
#SPECTRUM    :
184,
3352,
66132,
78172,
310530,
1562140,
28578,
28728,
34548,
41398,
46045,
44911,
47950,
49271,
43651,
43012,
42914,
41771,
40545,
39237,
37966,
36790,
35288,
34114,
32475,
31396,
29816,
28852,
27814,
26417,
25485,
24659,
25312,
26027,
22568,
21416,
20331,
20132,
19467,
18689,
17882,
17109,
16662,
16357,
18192,
235795,
710768,
21436,
14212,
16359,
94191,
54092,
9902,
9555,
9387,
9182,
8882,
8592,
8296,
7944,
7929,
7449,
7118,
7041,
7003,
6514,
6245,
6161,
5655,
5705,
5438,
5212,
4883,
4724,
4613,
4428,
4058,
3933,
3675,
3557,
3390,
3166,
2986,
2735,
2624,
2463,
2380,
2118,
2040,
1891,
1709,
2022,
1812,
1372,
1252,
1120,
1116,
963,
851,
728,
626,
526,
433,
348,
279,
210,
126,
47,
22,
13,
22,
23,
14,
14,
15,
9,
7,
16,
16,
17,
10,
30,
9,
16,
18,
7,
9,
12,
11,
10,
7,
3,
8,
7,
5,
7,
1,
1,
4,
6,
4,
4,
3,
3,
3,
3,
4,
3,
0,
1,
4,
4,
1,
0,
1,
1,
0,
1,
0,
1,
0,
1,
0,
1,
0,
0,
0,
1,
0,
0,
0,
0,
0,
1,
0,
0,
0,
0,
0,
0,
0,
0,
0,
0,
0,
0,
0,
0,
0,
0,
0,
0,
0,
0,
0,
0,
0,
0,
0,
0,
0,
0,
0,
0,
0,
0,
0,
0,
0,
0,
0,
0,
0,
0,
0,
0,
0,
0,
0,
0,
0,
0,
0,
0,
0,
0,
0,
0,
0,
0,
0,
0,
0,
0,
0,
0,
0,
0,
0,
0,
0,
0,
0,
0,
0,
0,
0,
0,
0,
0,
0,
0,
0,
0,
0,
0,
0,
0,
0,
0,
0,
0,
0,
0,
0,
0,
0,
0,
0,
0,
0,
0,
0,
0,
0,
0,
0,
0,
0,
0,
0,
0,
0,
0,
0,
0,
0,
0,
0,
0,
0,
0,
0,
0,
#ENDOFDATA   :