File: N132962/Standards/15 keV/FeS2 std.msa
#FORMAT      : EMSA/MAS Spectral Data File
#VERSION     : 1.0
#TITLE       : FeS2 standard for 'N132962' detector
#NPOINTS     : 4096
#NCOLUMNS    : 1
#XUNITS      : eV
#YUNITS      : counts
#DATATYPE    : Y
#SIGNALTYPE  : EDS
#XLABEL      : Energy (eV)
#YLABEL      : Counts
#XPERCHAN -eV: 9.99778
#OFFSET   -eV: 1.69135
#CHOFFSET    : 0
#DATE        : 27-Sep-2025
#TIME        : 18:36:00
#OWNER       : Unknown
#ELEVANGLE   : 35
#BEAMKV   -kV: 15
#LIVETIME  -s: 1919.7
#REALTIME  -s: 2070.09
#PROBECUR -nA: 1.20973
##WORKING -mm: 15
##D2STDCMP   : FeS2,(S:53.4489),(Fe:46.5511)
##SIMILAR    : 1.2
#SPECTRUM    :
204,
8393,
58602,
31586,
155012,
692615,
38906,
43200,
44047,
47757,
51516,
52259,
52653,
53046,
47115,
51334,
737359,
564560,
101738,
26075,
25389,
26647,
25258,
24245,
23161,
22480,
22074,
21387,
20428,
19700,
19115,
18479,
18012,
22923,
17417,
15887,
15193,
14836,
14623,
13939,
13188,
13071,
12373,
12131,
12879,
104999,
303406,
13845,
10520,
11154,
43917,
25767,
8119,
7861,
7606,
7435,
7001,
6957,
6699,
6433,
6252,
5970,
6795,
5835,
5290,
5027,
4863,
4714,
4574,
4347,
4068,
3947,
3705,
3562,
3347,
3098,
3085,
2888,
2726,
2650,
2529,
2320,
2287,
2063,
1962,
1849,
1656,
1596,
1477,
1330,
1297,
1195,
1100,
953,
845,
809,
737,
648,
585,
511,
418,
333,
294,
216,
197,
131,
76,
31,
11,
13,
5,
5,
7,
16,
5,
10,
7,
8,
3,
4,
4,
4,
10,
4,
10,
3,
6,
7,
1,
4,
4,
5,
3,
3,
0,
3,
5,
2,
2,
1,
1,
1,
2,
0,
1,
0,
0,
0,
0,
0,
0,
0,
0,
0,
0,
1,
0,
1,
0,
0,
0,
0,
0,
0,
0,
0,
0,
0,
0,
0,
0,
0,
0,
0,
0,
0,
0,
0,
0,
0,
0,
0,
0,
0,
0,
0,
0,
0,
0,
0,
0,
0,
0,
0,
0,
0,
0,
0,
0,
0,
0,
0,
0,
0,
0,
0,
0,
0,
0,
0,
0,
0,
0,
0,
0,
0,
0,
0,
0,
0,
0,
0,
0,
0,
0,
0,
0,
0,
0,
0,
0,
0,
0,
0,
0,
0,
0,
0,
0,
0,
0,
0,
0,
0,
0,
0,
0,
0,
0,
0,
0,
0,
0,
0,
0,
0,
0,
0,
0,
0,
0,
0,
0,
0,
0,
0,
0,
0,
0,
0,
0,
0,
0,
0,
0,
0,
0,
0,
0,
0,
0,
0,
0,
0,
0,
0,
0,
0,
0,
0,
0,
0,
0,
0,
#ENDOFDATA   :