File: N132962/Standards/15 keV/FeSi2 std.msa
#FORMAT      : EMSA/MAS Spectral Data File
#VERSION     : 1.0
#TITLE       : FeSi2 standard for 'N132962' detector
#NPOINTS     : 4096
#NCOLUMNS    : 1
#XUNITS      : eV
#YUNITS      : counts
#DATATYPE    : Y
#SIGNALTYPE  : EDS
#XLABEL      : Energy (eV)
#YLABEL      : Counts
#XPERCHAN -eV: 9.99778
#OFFSET   -eV: 1.69135
#CHOFFSET    : 0
#DATE        : 27-Sep-2025
#TIME        : 18:57:00
#OWNER       : Unknown
#ELEVANGLE   : 35
#BEAMKV   -kV: 15
#LIVETIME  -s: 1919.35
#REALTIME  -s: 2080.915
#PROBECUR -nA: 1.21052
##WORKING -mm: 15
##D2STDCMP   : FeSi2,(Si:50.1451),(Fe:49.8549)
##SIMILAR    : 1.2
#SPECTRUM    :
203,
2160,
60043,
37838,
122988,
931180,
37875,
42272,
43435,
48075,
53140,
62131,
1019362,
445868,
27756,
27566,
28409,
31018,
28610,
27122,
26138,
25885,
24812,
23990,
23593,
30196,
21815,
20685,
19912,
19081,
18445,
17691,
17094,
17606,
16162,
15552,
14865,
14280,
13929,
13450,
13021,
12388,
11953,
11602,
12361,
105214,
304607,
13074,
9834,
10480,
43211,
26085,
7600,
7467,
7094,
6958,
6545,
6509,
7612,
6196,
5693,
5431,
5291,
5190,
4916,
4639,
4628,
4321,
4093,
3909,
3870,
3709,
3492,
3306,
3084,
3118,
2923,
2682,
2610,
2412,
2337,
2104,
1962,
1957,
1846,
1681,
1547,
1479,
1334,
1256,
1169,
1089,
1044,
903,
772,
734,
710,
594,
543,
495,
369,
347,
268,
225,
158,
128,
69,
28,
14,
7,
8,
10,
11,
9,
7,
9,
11,
6,
6,
2,
2,
7,
9,
5,
2,
4,
1,
3,
2,
1,
0,
4,
5,
4,
1,
2,
0,
2,
2,
2,
3,
4,
1,
1,
0,
1,
0,
1,
0,
0,
0,
1,
1,
0,
0,
0,
0,
3,
0,
1,
0,
0,
0,
1,
0,
0,
0,
0,
1,
1,
0,
0,
0,
0,
0,
0,
2,
1,
0,
0,
0,
0,
0,
0,
0,
0,
0,
0,
0,
0,
0,
0,
0,
0,
0,
0,
0,
0,
0,
0,
0,
0,
0,
0,
0,
0,
0,
0,
0,
0,
0,
0,
0,
0,
0,
0,
0,
0,
0,
0,
0,
0,
0,
0,
0,
0,
0,
0,
0,
0,
0,
0,
0,
0,
0,
0,
0,
0,
0,
0,
0,
0,
0,
0,
0,
0,
0,
0,
0,
0,
0,
0,
0,
0,
0,
0,
0,
0,
0,
0,
0,
0,
0,
0,
0,
0,
0,
0,
0,
0,
0,
0,
0,
0,
0,
0,
0,
0,
0,
0,
0,
0,
0,
0,
0,
0,
0,
0,
0,
0,
0,
0,
0,
0,
#ENDOFDATA   :