File: N132962/Standards/15 keV/GaP std.msa
#FORMAT      : EMSA/MAS Spectral Data File
#VERSION     : 1.0
#TITLE       : GaP standard for 'N132962' detector
#NPOINTS     : 4096
#NCOLUMNS    : 1
#XUNITS      : eV
#YUNITS      : counts
#DATATYPE    : Y
#SIGNALTYPE  : EDS
#XLABEL      : Energy (eV)
#YLABEL      : Counts
#XPERCHAN -eV: 9.99778
#OFFSET   -eV: 1.69135
#CHOFFSET    : 0
#DATE        : 27-Sep-2025
#TIME        : 18:04:00
#OWNER       : Unknown
#ELEVANGLE   : 35
#BEAMKV   -kV: 15
#LIVETIME  -s: 2158.83
#REALTIME  -s: 2360.6
#PROBECUR -nA: 1.20959
##WORKING -mm: 15
##D2STDCMP   : GaP,(P:30.7594),(Ga:69.2406)
##SIMILAR    : 1.0
#SPECTRUM    :
205,
3173,
110061,
44938,
70147,
90899,
111601,
366091,
3463111,
46563,
42693,
46507,
51564,
58007,
675771,
204823,
49495,
36556,
36375,
35983,
35658,
35456,
40175,
34334,
31744,
30957,
29958,
29193,
28370,
28304,
26569,
25714,
24547,
23788,
22947,
22202,
20969,
20388,
19775,
19420,
18713,
17699,
17273,
16639,
15959,
15577,
15206,
14466,
13964,
13394,
13045,
12524,
12088,
11797,
11375,
10733,
10236,
10162,
9553,
9399,
8923,
8680,
8623,
8104,
7986,
27961,
155012,
23510,
6587,
6306,
6137,
5930,
6878,
22949,
12415,
4627,
4312,
4037,
3998,
3644,
3772,
3555,
3244,
2931,
2826,
2607,
2494,
2342,
2179,
2007,
1850,
1742,
1593,
1443,
1337,
1233,
1088,
940,
930,
730,
609,
539,
468,
390,
257,
199,
107,
43,
17,
20,
12,
21,
11,
12,
15,
10,
4,
8,
9,
9,
4,
6,
14,
6,
9,
11,
8,
6,
2,
3,
4,
10,
19,
8,
3,
7,
2,
3,
5,
7,
4,
4,
4,
1,
3,
0,
3,
2,
2,
1,
1,
3,
0,
0,
2,
1,
0,
0,
0,
1,
0,
1,
0,
2,
1,
0,
1,
1,
0,
0,
0,
0,
0,
0,
1,
1,
1,
0,
0,
0,
0,
0,
0,
0,
0,
0,
0,
0,
0,
0,
0,
0,
0,
0,
0,
0,
0,
0,
0,
0,
0,
0,
0,
0,
0,
0,
0,
0,
0,
0,
0,
0,
0,
0,
0,
0,
0,
0,
0,
0,
0,
0,
0,
0,
0,
0,
0,
0,
0,
0,
0,
0,
0,
0,
0,
0,
0,
0,
0,
0,
0,
0,
0,
0,
0,
0,
0,
0,
0,
0,
0,
0,
0,
0,
0,
0,
0,
0,
0,
0,
0,
0,
0,
0,
0,
0,
0,
0,
0,
0,
0,
0,
0,
0,
0,
0,
0,
0,
0,
0,
0,
0,
0,
0,
0,
0,
0,
0,
0,
0,
0,
0,
0,
0,
#ENDOFDATA   :