File: N132962/Standards/15 keV/Gd std.msa
#FORMAT      : EMSA/MAS Spectral Data File
#VERSION     : 1.0
#TITLE       : Gd standard for 'N132962' detector
#NPOINTS     : 4096
#NCOLUMNS    : 1
#XUNITS      : eV
#YUNITS      : counts
#DATATYPE    : Y
#SIGNALTYPE  : EDS
#XLABEL      : Energy (eV)
#YLABEL      : Counts
#XPERCHAN -eV: 9.99778
#OFFSET   -eV: 1.69135
#CHOFFSET    : 0
#DATE        : 26-Sep-2025
#TIME        : 17:11:00
#OWNER       : Unknown
#ELEVANGLE   : 35
#BEAMKV   -kV: 15
#LIVETIME  -s: 1680.26
#REALTIME  -s: 1826.2
#PROBECUR -nA: 1.21578
##WORKING -mm: 15
##D2STDCMP   : Gd,(Gd:100.0000)
##SIMILAR    : 3.7
#SPECTRUM    :
158,
4931,
98817,
79945,
136850,
124612,
159673,
147092,
209835,
166473,
88784,
68489,
49157,
49742,
43830,
45844,
47063,
48141,
47776,
48415,
47735,
47117,
46851,
46263,
45065,
44151,
43450,
42258,
41379,
40476,
40071,
40062,
37176,
36496,
35325,
34756,
33992,
32837,
45037,
35769,
30639,
29864,
36220,
382545,
100872,
27726,
27744,
43106,
198028,
57331,
44963,
74855,
21522,
19137,
19377,
30342,
32063,
19787,
23083,
16059,
15647,
14116,
13715,
13327,
13099,
12638,
12267,
11676,
11497,
10940,
10677,
10562,
10162,
9708,
9333,
8877,
8752,
8399,
7949,
7603,
7113,
6783,
6650,
6113,
5966,
5737,
5379,
5037,
4673,
4500,
4229,
3994,
3538,
3210,
3141,
2743,
2489,
2237,
2095,
1785,
1573,
1372,
1133,
889,
732,
487,
311,
130,
47,
50,
47,
42,
36,
34,
38,
33,
50,
28,
24,
25,
28,
35,
32,
34,
22,
22,
34,
20,
17,
18,
24,
20,
16,
16,
20,
18,
13,
19,
12,
12,
10,
13,
10,
12,
13,
9,
7,
5,
8,
6,
6,
8,
5,
4,
5,
7,
1,
1,
4,
2,
3,
1,
2,
1,
1,
1,
1,
1,
1,
1,
4,
0,
0,
2,
0,
0,
1,
0,
0,
0,
0,
0,
1,
1,
1,
0,
2,
0,
1,
1,
0,
0,
0,
0,
0,
0,
0,
0,
0,
0,
0,
0,
0,
0,
0,
0,
1,
0,
0,
0,
0,
0,
0,
0,
0,
0,
0,
0,
0,
0,
0,
0,
0,
0,
0,
0,
0,
0,
0,
0,
0,
0,
0,
0,
0,
0,
0,
0,
0,
0,
0,
0,
0,
0,
0,
0,
0,
0,
0,
0,
0,
0,
0,
0,
0,
0,
0,
0,
0,
0,
0,
0,
0,
0,
0,
0,
0,
0,
0,
0,
0,
0,
0,
0,
0,
0,
0,
0,
0,
0,
0,
0,
0,
0,
0,
0,
0,
0,
0,
0,
0,
0,
0,
0,
#ENDOFDATA   :