File: N132962/Standards/15 keV/GdP5O14 std.msa
#FORMAT      : EMSA/MAS Spectral Data File
#VERSION     : 1.0
#TITLE       : GdP5O14 standard for 'N132962' detector
#NPOINTS     : 4096
#NCOLUMNS    : 1
#XUNITS      : eV
#YUNITS      : counts
#DATATYPE    : Y
#SIGNALTYPE  : EDS
#XLABEL      : Energy (eV)
#YLABEL      : Counts
#XPERCHAN -eV: 9.99778
#OFFSET   -eV: 1.69135
#CHOFFSET    : 0
#DATE        : 17-Mar-2025
#TIME        : 16:22:00
#OWNER       : Unknown
#ELEVANGLE   : 35
#BEAMKV   -kV: 15
#LIVETIME  -s: 962.106
#REALTIME  -s: 1014.72
#PROBECUR -nA: 1.02671
##WORKING -mm: 15
##D2STDCMP   : GdP5O14,(O:41.7803),(P:28.8878),(Gd:29.3320)
##SIMILAR    : 1.3
#SPECTRUM    :
83,
1545,
65524,
34208,
253350,
15622,
23314,
24415,
35888,
38087,
25920,
21738,
18537,
19870,
240313,
72515,
12618,
11356,
12670,
11090,
10909,
10558,
10108,
10017,
9686,
9125,
9161,
8721,
8446,
8499,
7869,
7788,
7547,
6998,
6721,
6548,
6358,
6178,
7319,
6319,
5598,
5319,
5938,
41977,
12706,
4689,
4707,
6286,
22284,
7518,
6130,
9431,
3543,
3370,
3245,
4423,
4555,
3292,
3561,
2726,
2689,
2425,
2292,
2260,
2141,
2188,
2004,
1953,
1856,
1770,
1720,
1615,
1568,
1442,
1382,
1389,
1262,
1201,
1181,
1029,
1084,
1003,
901,
841,
828,
774,
735,
677,
599,
578,
518,
479,
430,
413,
406,
321,
300,
273,
240,
188,
164,
125,
120,
92,
75,
48,
17,
3,
2,
1,
1,
1,
2,
1,
3,
2,
0,
2,
2,
1,
0,
0,
2,
1,
0,
0,
0,
0,
1,
0,
0,
1,
0,
1,
1,
0,
0,
0,
1,
0,
0,
0,
0,
1,
0,
0,
0,
0,
0,
0,
0,
0,
0,
0,
0,
0,
0,
0,
0,
0,
0,
0,
0,
0,
0,
0,
0,
0,
0,
0,
0,
0,
0,
0,
0,
0,
0,
0,
0,
0,
0,
0,
0,
0,
0,
0,
0,
0,
0,
1,
0,
0,
0,
0,
0,
0,
0,
0,
0,
0,
0,
0,
0,
0,
0,
0,
0,
0,
0,
0,
0,
0,
0,
0,
0,
0,
0,
0,
0,
0,
0,
0,
0,
0,
0,
0,
0,
0,
0,
0,
0,
0,
0,
0,
0,
0,
0,
0,
0,
0,
0,
0,
0,
0,
0,
0,
0,
0,
0,
0,
0,
0,
0,
0,
0,
0,
0,
0,
0,
0,
0,
0,
0,
0,
0,
0,
0,
0,
0,
0,
0,
0,
0,
0,
0,
0,
0,
0,
0,
0,
0,
0,
0,
0,
0,
0,
0,
0,
0,
0,
0,
0,
0,
0,
#ENDOFDATA   :