File: N132962/Standards/15 keV/Ge std.msa
#FORMAT      : EMSA/MAS Spectral Data File
#VERSION     : 1.0
#TITLE       : Ge standard for 'N132962' detector
#NPOINTS     : 4096
#NCOLUMNS    : 1
#XUNITS      : eV
#YUNITS      : counts
#DATATYPE    : Y
#SIGNALTYPE  : EDS
#XLABEL      : Energy (eV)
#YLABEL      : Counts
#XPERCHAN -eV: 9.99778
#OFFSET   -eV: 1.69135
#CHOFFSET    : 0
#DATE        : 26-Sep-2025
#TIME        : 23:31:00
#OWNER       : Unknown
#ELEVANGLE   : 35
#BEAMKV   -kV: 15
#LIVETIME  -s: 1912.62
#REALTIME  -s: 2115.39
#PROBECUR -nA: 1.21571
##WORKING -mm: 15
##D2STDCMP   : Ge,(Ge:100.0000)
##SIMILAR    : 1.2
#SPECTRUM    :
201,
2716,
50745,
45830,
74687,
93764,
105626,
189315,
842283,
1038198,
34107,
33984,
38837,
41832,
37714,
39558,
43425,
64052,
39531,
39004,
38158,
37889,
36909,
36081,
35049,
34026,
33285,
32353,
31198,
30683,
29438,
28323,
27609,
26522,
25739,
24731,
24125,
23220,
22611,
22272,
20759,
20321,
19591,
18760,
18406,
18126,
19240,
16251,
15792,
15173,
14999,
14380,
13874,
13683,
12863,
12270,
12117,
11450,
11155,
10720,
10194,
10028,
9461,
9293,
8877,
8413,
8101,
7960,
7769,
9578,
90538,
88313,
8219,
6131,
5853,
5611,
5567,
5891,
18996,
14897,
4614,
3761,
3671,
3522,
3265,
3134,
2908,
2934,
2677,
2399,
2179,
2017,
1844,
1778,
1579,
1542,
1306,
1202,
1038,
977,
800,
724,
597,
458,
379,
268,
170,
67,
24,
16,
16,
12,
19,
18,
11,
19,
10,
15,
15,
17,
6,
15,
13,
11,
5,
9,
10,
14,
9,
5,
8,
15,
8,
5,
6,
8,
6,
7,
2,
7,
10,
18,
6,
3,
8,
4,
8,
4,
4,
5,
5,
5,
1,
4,
0,
1,
2,
1,
2,
0,
0,
3,
0,
1,
1,
0,
0,
1,
1,
1,
1,
1,
0,
0,
0,
0,
0,
0,
0,
0,
0,
0,
1,
0,
0,
0,
0,
0,
0,
0,
0,
0,
0,
0,
0,
0,
0,
0,
0,
0,
0,
0,
0,
0,
0,
0,
0,
0,
0,
0,
0,
0,
0,
0,
0,
0,
0,
0,
0,
0,
0,
0,
0,
0,
0,
0,
0,
0,
0,
0,
0,
0,
0,
0,
0,
0,
0,
0,
0,
0,
0,
0,
0,
0,
0,
0,
0,
0,
0,
0,
0,
0,
0,
0,
0,
0,
0,
0,
0,
0,
0,
0,
0,
0,
0,
0,
0,
0,
0,
0,
0,
0,
0,
0,
0,
0,
0,
0,
0,
0,
0,
0,
0,
0,
0,
0,
0,
0,
0,
0,
0,
0,
0,
0,
#ENDOFDATA   :