File: N132962/Standards/15 keV/Hf std.msa
#FORMAT      : EMSA/MAS Spectral Data File
#VERSION     : 1.0
#TITLE       : Hf standard for 'N132962' detector
#NPOINTS     : 4096
#NCOLUMNS    : 1
#XUNITS      : eV
#YUNITS      : counts
#DATATYPE    : Y
#SIGNALTYPE  : EDS
#XLABEL      : Energy (eV)
#YLABEL      : Counts
#XPERCHAN -eV: 9.99778
#OFFSET   -eV: 1.69135
#CHOFFSET    : 0
#DATE        : 26-Sep-2025
#TIME        : 18:04:00
#OWNER       : Unknown
#ELEVANGLE   : 35
#BEAMKV   -kV: 15
#LIVETIME  -s: 1921.5
#REALTIME  -s: 2142.51
#PROBECUR -nA: 1.21605
##WORKING -mm: 15
##D2STDCMP   : Hf,(Hf:100.0000)
##SIMILAR    : 1.1
#SPECTRUM    :
214,
8169,
87676,
62305,
92691,
97197,
106689,
112874,
117156,
315362,
128097,
213434,
2518843,
83251,
72392,
94521,
58219,
50301,
51703,
50807,
51114,
52304,
51671,
53369,
56360,
50598,
49961,
49516,
48385,
47421,
46368,
45834,
45246,
43525,
42862,
41894,
40646,
39854,
39245,
38695,
36804,
35545,
35577,
34051,
33589,
33376,
34657,
30183,
29527,
31485,
35896,
28021,
26686,
26321,
25553,
28563,
168800,
100468,
24397,
21870,
20834,
19979,
19558,
22742,
64718,
52119,
32638,
44946,
18545,
14934,
13898,
13422,
13107,
12809,
13426,
21230,
13440,
12543,
11951,
9832,
9637,
8837,
8464,
8077,
7525,
7135,
6833,
6529,
6064,
5808,
5481,
5119,
4739,
4307,
4100,
3766,
3361,
3091,
2791,
2506,
2264,
1890,
1645,
1374,
1086,
774,
533,
205,
64,
62,
66,
58,
72,
81,
59,
53,
31,
34,
39,
29,
34,
50,
59,
42,
43,
37,
40,
38,
30,
32,
28,
32,
27,
27,
21,
25,
16,
21,
18,
21,
18,
12,
11,
24,
13,
18,
15,
9,
7,
12,
6,
9,
6,
5,
8,
9,
10,
7,
1,
3,
6,
3,
3,
0,
1,
3,
2,
0,
3,
1,
0,
3,
1,
1,
0,
2,
1,
4,
0,
0,
1,
2,
0,
0,
0,
2,
3,
0,
1,
0,
1,
0,
0,
0,
0,
0,
0,
0,
0,
0,
0,
0,
0,
0,
0,
0,
0,
0,
0,
1,
0,
0,
0,
0,
0,
0,
0,
0,
0,
0,
0,
0,
0,
0,
0,
0,
0,
0,
0,
0,
0,
0,
0,
0,
0,
0,
0,
0,
0,
0,
0,
0,
0,
0,
0,
0,
0,
0,
0,
0,
0,
0,
0,
0,
0,
0,
0,
0,
0,
0,
0,
0,
0,
0,
0,
0,
0,
0,
0,
0,
0,
0,
0,
0,
0,
0,
0,
0,
0,
0,
0,
0,
0,
0,
0,
0,
0,
0,
0,
0,
0,
0,
0,
0,
#ENDOFDATA   :