File: N132962/Standards/15 keV/HgTe std.msa
#FORMAT      : EMSA/MAS Spectral Data File
#VERSION     : 1.0
#TITLE       : HgTe standard for 'N132962' detector
#NPOINTS     : 4096
#NCOLUMNS    : 1
#XUNITS      : eV
#YUNITS      : counts
#DATATYPE    : Y
#SIGNALTYPE  : EDS
#XLABEL      : Energy (eV)
#YLABEL      : Counts
#XPERCHAN -eV: 9.99778
#OFFSET   -eV: 1.69135
#CHOFFSET    : 0
#DATE        : 27-Sep-2025
#TIME        : 20:26:00
#OWNER       : Unknown
#ELEVANGLE   : 35
#BEAMKV   -kV: 15
#LIVETIME  -s: 1439.51
#REALTIME  -s: 1576.39
#PROBECUR -nA: 1.21175
##WORKING -mm: 15
##D2STDCMP   : HgTe,(Te:38.8797),(Hg:61.1203)
##SIMILAR    : 1.2
#SPECTRUM    :
138,
12443,
115154,
103569,
70171,
47436,
56617,
58101,
56109,
60361,
64279,
67379,
109428,
74648,
64564,
141571,
752329,
76731,
69460,
41507,
44680,
44902,
38288,
39068,
46823,
37978,
49413,
329046,
48555,
169312,
50671,
66328,
35256,
41037,
32883,
30774,
26721,
26427,
25980,
25249,
24814,
24408,
23993,
23734,
22862,
22639,
22277,
21104,
20650,
20035,
19499,
18959,
18209,
18172,
17609,
17029,
16478,
15848,
15686,
14965,
14822,
14230,
14689,
13486,
12839,
12347,
11994,
11420,
11064,
10707,
12062,
26215,
16166,
9460,
8885,
8508,
8295,
7838,
7483,
7200,
6984,
6505,
6447,
5958,
6837,
8944,
5783,
4876,
4584,
4100,
3841,
3486,
3414,
3169,
2856,
2650,
2397,
2236,
2101,
1964,
1558,
1389,
1103,
904,
744,
492,
318,
124,
53,
41,
39,
33,
30,
35,
25,
22,
24,
25,
23,
16,
12,
25,
24,
21,
17,
23,
8,
16,
12,
13,
15,
14,
14,
9,
16,
4,
14,
6,
9,
7,
7,
5,
12,
5,
8,
2,
4,
4,
5,
5,
2,
2,
5,
3,
7,
3,
2,
3,
1,
3,
2,
2,
2,
5,
1,
1,
0,
1,
3,
3,
2,
1,
0,
0,
0,
1,
0,
1,
0,
0,
1,
2,
0,
0,
0,
0,
0,
0,
1,
0,
1,
1,
0,
0,
0,
0,
0,
0,
0,
0,
0,
0,
0,
0,
0,
0,
0,
0,
0,
0,
1,
0,
0,
0,
0,
0,
0,
0,
0,
0,
0,
0,
0,
0,
0,
0,
0,
0,
0,
0,
0,
0,
0,
0,
0,
0,
0,
0,
0,
0,
0,
0,
0,
0,
0,
0,
0,
0,
0,
0,
0,
0,
0,
0,
0,
0,
0,
0,
0,
0,
0,
0,
0,
0,
0,
0,
0,
0,
0,
0,
0,
0,
0,
0,
0,
0,
0,
0,
0,
0,
0,
0,
0,
0,
0,
0,
0,
0,
0,
0,
0,
0,
0,
0,
#ENDOFDATA   :