File: N132962/Standards/15 keV/Ho std.msa
#FORMAT      : EMSA/MAS Spectral Data File
#VERSION     : 1.0
#TITLE       : Ho standard for 'N132962' detector
#NPOINTS     : 4096
#NCOLUMNS    : 1
#XUNITS      : eV
#YUNITS      : counts
#DATATYPE    : Y
#SIGNALTYPE  : EDS
#XLABEL      : Energy (eV)
#YLABEL      : Counts
#XPERCHAN -eV: 9.99778
#OFFSET   -eV: 1.69135
#CHOFFSET    : 0
#DATE        : 26-Sep-2025
#TIME        : 17:43:00
#OWNER       : Unknown
#ELEVANGLE   : 35
#BEAMKV   -kV: 15
#LIVETIME  -s: 1679.91
#REALTIME  -s: 1828.59
#PROBECUR -nA: 1.21629
##WORKING -mm: 15
##D2STDCMP   : Ho,(Ho:100.0000)
##SIMILAR    : 2.3
#SPECTRUM    :
168,
5608,
102597,
68299,
115807,
131245,
101867,
172248,
133687,
152917,
610277,
79976,
61120,
56822,
43502,
45414,
44994,
46069,
46883,
48072,
47002,
46996,
46601,
45830,
45335,
44356,
43856,
43251,
42063,
41533,
40430,
39502,
38800,
37793,
36831,
36430,
35124,
34102,
32793,
32710,
30987,
30753,
37763,
33927,
28138,
27831,
29802,
56105,
339027,
43238,
24258,
23290,
22928,
59978,
126451,
37488,
53179,
44054,
18200,
16242,
16369,
16050,
27964,
23358,
16355,
18423,
13100,
13461,
12043,
11606,
11482,
10785,
10469,
10264,
9788,
9293,
8913,
8693,
8274,
7870,
7465,
7368,
6954,
6585,
6259,
5907,
5477,
5268,
4939,
4548,
4305,
4029,
3677,
3560,
3266,
2977,
2773,
2496,
2334,
1908,
1753,
1539,
1312,
962,
822,
572,
323,
124,
63,
63,
60,
52,
43,
55,
40,
24,
29,
31,
34,
25,
20,
53,
32,
37,
37,
29,
39,
28,
23,
18,
29,
21,
14,
11,
23,
14,
16,
23,
12,
16,
20,
13,
7,
9,
11,
11,
6,
12,
5,
8,
8,
5,
8,
6,
5,
2,
2,
3,
4,
1,
4,
1,
0,
0,
1,
2,
2,
1,
0,
0,
1,
0,
0,
0,
0,
1,
2,
1,
4,
1,
0,
0,
2,
0,
1,
0,
2,
0,
1,
0,
1,
0,
0,
1,
0,
0,
0,
0,
0,
0,
0,
0,
0,
0,
0,
0,
0,
0,
0,
0,
0,
0,
0,
0,
0,
0,
0,
0,
0,
0,
0,
0,
0,
0,
0,
0,
0,
0,
0,
0,
0,
0,
0,
0,
0,
0,
0,
0,
0,
0,
0,
0,
0,
0,
0,
0,
0,
0,
0,
0,
0,
0,
0,
0,
0,
0,
0,
0,
0,
0,
0,
0,
0,
0,
0,
0,
0,
0,
0,
0,
0,
0,
0,
0,
0,
0,
0,
0,
0,
0,
0,
0,
0,
0,
0,
0,
0,
0,
0,
0,
0,
0,
0,
0,
#ENDOFDATA   :