File: N132962/Standards/15 keV/HoP5O14 std.msa
#FORMAT      : EMSA/MAS Spectral Data File
#VERSION     : 1.0
#TITLE       : HoP5O14 standard for 'N132962' detector
#NPOINTS     : 4096
#NCOLUMNS    : 1
#XUNITS      : eV
#YUNITS      : counts
#DATATYPE    : Y
#SIGNALTYPE  : EDS
#XLABEL      : Energy (eV)
#YLABEL      : Counts
#XPERCHAN -eV: 9.99778
#OFFSET   -eV: 1.69135
#CHOFFSET    : 0
#DATE        : 17-Mar-2025
#TIME        : 16:05:00
#OWNER       : Unknown
#ELEVANGLE   : 35
#BEAMKV   -kV: 15
#LIVETIME  -s: 959.051
#REALTIME  -s: 1011.88
#PROBECUR -nA: 1.02545
##WORKING -mm: 15
##D2STDCMP   : HoP5O14,(O:41.1902),(P:28.4798),(Ho:30.3301)
##SIMILAR    : 1.1
#SPECTRUM    :
99,
1468,
66250,
31635,
234547,
15708,
19092,
28293,
25205,
29500,
120081,
24108,
20332,
21302,
234622,
71663,
12659,
11472,
12627,
11276,
11045,
10633,
10471,
10321,
10172,
9680,
9482,
9033,
8827,
8809,
8197,
7820,
7653,
7219,
7122,
6865,
6476,
6355,
6209,
5851,
5580,
5575,
6175,
5749,
4936,
4977,
5000,
7657,
38168,
6259,
4032,
3921,
3856,
7674,
14618,
5244,
6690,
5895,
2996,
2966,
2807,
2627,
3890,
3343,
2538,
2715,
2239,
2150,
2017,
1903,
1825,
1722,
1618,
1515,
1493,
1458,
1336,
1310,
1217,
1216,
1114,
1060,
990,
908,
863,
831,
746,
724,
706,
596,
572,
478,
480,
444,
416,
373,
304,
277,
270,
206,
180,
168,
151,
114,
84,
48,
28,
10,
5,
3,
1,
3,
0,
2,
1,
1,
0,
0,
0,
1,
1,
0,
0,
1,
1,
1,
1,
1,
1,
2,
0,
1,
0,
0,
1,
1,
0,
0,
1,
1,
0,
0,
0,
0,
1,
0,
1,
0,
0,
0,
0,
0,
0,
0,
1,
0,
2,
0,
0,
0,
0,
0,
0,
0,
0,
0,
0,
0,
0,
0,
0,
0,
0,
0,
0,
0,
0,
0,
0,
0,
0,
0,
0,
0,
0,
0,
0,
0,
0,
0,
0,
0,
0,
0,
0,
0,
0,
0,
0,
0,
0,
0,
0,
0,
0,
0,
0,
0,
0,
0,
0,
0,
0,
0,
0,
0,
0,
0,
0,
0,
0,
0,
0,
0,
0,
0,
0,
0,
0,
0,
0,
0,
0,
0,
0,
0,
0,
0,
0,
0,
0,
0,
0,
0,
0,
0,
0,
0,
0,
0,
0,
0,
0,
0,
0,
0,
0,
0,
0,
0,
0,
0,
0,
0,
0,
0,
0,
0,
0,
0,
0,
0,
0,
0,
0,
0,
0,
0,
0,
0,
0,
0,
0,
0,
0,
0,
0,
0,
0,
0,
0,
0,
0,
0,
#ENDOFDATA   :