File: N132962/Standards/15 keV/In std.msa
#FORMAT      : EMSA/MAS Spectral Data File
#VERSION     : 1.0
#TITLE       : In standard for 'N132962' detector
#NPOINTS     : 4096
#NCOLUMNS    : 1
#XUNITS      : eV
#YUNITS      : counts
#DATATYPE    : Y
#SIGNALTYPE  : EDS
#XLABEL      : Energy (eV)
#YLABEL      : Counts
#XPERCHAN -eV: 9.99778
#OFFSET   -eV: 1.69135
#CHOFFSET    : 0
#DATE        : 25-Sep-2025
#TIME        : 20:10:00
#OWNER       : Unknown
#ELEVANGLE   : 35
#BEAMKV   -kV: 15
#LIVETIME  -s: 1441.5
#REALTIME  -s: 1566.01
#PROBECUR -nA: 1.20878
##WORKING -mm: 15
##D2STDCMP   : In,(In:100.0000)
##SIMILAR    : 92.0
#SPECTRUM    :
125,
10628,
197951,
116575,
57786,
40489,
34038,
37731,
40945,
47553,
50331,
65335,
56052,
56062,
48509,
47827,
46696,
45853,
43546,
44156,
44364,
71708,
52551,
367987,
343539,
474041,
103916,
83300,
64608,
25619,
32390,
20756,
22571,
20660,
20304,
20147,
19802,
19637,
18720,
18626,
18038,
17729,
17249,
17017,
16410,
16347,
16236,
16078,
15066,
14812,
14223,
13547,
13147,
13164,
12196,
12047,
11631,
11278,
11026,
10382,
10142,
9937,
9591,
9289,
8910,
8556,
8066,
7882,
7683,
7549,
7093,
6712,
6622,
6183,
6218,
5962,
5448,
5317,
5164,
4776,
4629,
4319,
4170,
3958,
3788,
3325,
3354,
3093,
2906,
2613,
2568,
2411,
2187,
2010,
1763,
1597,
1566,
1374,
1230,
1003,
963,
777,
671,
547,
440,
311,
179,
73,
34,
21,
22,
14,
24,
16,
9,
19,
17,
13,
7,
9,
12,
9,
16,
15,
10,
18,
7,
9,
6,
3,
6,
9,
2,
6,
1,
7,
4,
5,
8,
2,
3,
2,
3,
2,
1,
4,
2,
2,
3,
2,
1,
3,
1,
1,
1,
0,
1,
4,
0,
0,
0,
0,
0,
0,
0,
0,
0,
1,
0,
0,
0,
0,
0,
0,
2,
1,
0,
1,
0,
0,
1,
0,
0,
0,
0,
0,
0,
0,
1,
1,
1,
0,
0,
0,
0,
0,
0,
1,
0,
0,
0,
0,
0,
0,
0,
0,
0,
0,
0,
0,
0,
0,
0,
0,
0,
0,
0,
0,
0,
0,
0,
0,
0,
0,
0,
0,
0,
0,
0,
0,
0,
0,
0,
0,
0,
0,
0,
0,
0,
0,
0,
0,
0,
0,
0,
0,
0,
0,
0,
0,
0,
0,
0,
0,
0,
0,
0,
0,
0,
0,
0,
0,
0,
0,
0,
0,
0,
0,
0,
0,
0,
0,
0,
0,
0,
0,
0,
0,
0,
0,
0,
0,
0,
0,
0,
0,
0,
0,
0,
0,
0,
0,
0,
0,
#ENDOFDATA   :