File: N132962/Standards/15 keV/InAs std.msa
#FORMAT      : EMSA/MAS Spectral Data File
#VERSION     : 1.0
#TITLE       : InAs standard for 'N132962' detector
#NPOINTS     : 4096
#NCOLUMNS    : 1
#XUNITS      : eV
#YUNITS      : counts
#DATATYPE    : Y
#SIGNALTYPE  : EDS
#XLABEL      : Energy (eV)
#YLABEL      : Counts
#XPERCHAN -eV: 9.99778
#OFFSET   -eV: 1.69135
#CHOFFSET    : 0
#DATE        : 27-Sep-2025
#TIME        : 19:35:00
#OWNER       : Unknown
#ELEVANGLE   : 35
#BEAMKV   -kV: 15
#LIVETIME  -s: 1919.11
#REALTIME  -s: 2078.22
#PROBECUR -nA: 1.21093
##WORKING -mm: 15
##D2STDCMP   : InAs,(As:39.4865),(In:60.5135)
##SIMILAR    : 1.3
#SPECTRUM    :
202,
4521,
112758,
81705,
51744,
57651,
56830,
69144,
131922,
1039764,
102058,
66196,
58264,
60477,
53553,
53026,
53425,
53255,
52828,
51562,
51967,
73625,
58567,
320817,
297854,
411042,
99705,
83040,
69549,
33917,
40128,
29242,
29320,
29376,
28358,
27399,
26828,
25910,
25256,
24724,
23852,
23540,
22814,
22179,
21469,
20988,
21018,
20014,
19236,
18557,
18185,
17502,
16877,
16406,
15804,
15381,
14851,
14507,
13837,
13465,
12936,
12502,
12105,
11616,
11503,
10803,
10351,
10072,
9716,
9349,
9056,
8656,
8351,
8220,
10666,
39596,
16471,
6893,
6254,
6033,
5732,
5585,
5119,
7072,
8481,
4642,
3878,
3746,
3547,
3305,
3023,
2874,
2587,
2463,
2250,
2059,
1828,
1589,
1522,
1341,
1194,
1054,
843,
650,
480,
354,
244,
79,
33,
27,
29,
29,
24,
26,
17,
21,
15,
14,
8,
13,
16,
21,
21,
12,
9,
9,
9,
16,
5,
13,
7,
10,
9,
4,
4,
9,
3,
8,
9,
4,
5,
4,
4,
4,
7,
2,
2,
4,
1,
8,
6,
2,
1,
1,
3,
0,
3,
0,
1,
1,
3,
2,
1,
1,
1,
2,
3,
0,
0,
2,
2,
2,
1,
0,
0,
1,
2,
2,
0,
0,
0,
0,
0,
0,
0,
0,
0,
2,
0,
0,
0,
0,
0,
0,
0,
0,
0,
0,
0,
0,
0,
0,
0,
0,
0,
0,
0,
0,
0,
0,
0,
0,
0,
0,
0,
0,
0,
0,
0,
0,
0,
0,
0,
0,
0,
0,
0,
0,
0,
0,
0,
0,
0,
0,
0,
0,
0,
0,
0,
0,
0,
0,
0,
0,
0,
0,
0,
0,
0,
0,
0,
0,
0,
0,
0,
0,
0,
0,
0,
0,
0,
0,
0,
0,
0,
0,
0,
0,
0,
0,
0,
0,
0,
0,
0,
0,
0,
0,
0,
0,
0,
0,
0,
0,
0,
0,
0,
0,
0,
0,
0,
0,
0,
0,
#ENDOFDATA   :