File: N132962/Standards/15 keV/InP std.msa
#FORMAT      : EMSA/MAS Spectral Data File
#VERSION     : 1.0
#TITLE       : InP standard for 'N132962' detector
#NPOINTS     : 4096
#NCOLUMNS    : 1
#XUNITS      : eV
#YUNITS      : counts
#DATATYPE    : Y
#SIGNALTYPE  : EDS
#XLABEL      : Energy (eV)
#YLABEL      : Counts
#XPERCHAN -eV: 9.99778
#OFFSET   -eV: 1.69135
#CHOFFSET    : 0
#DATE        : 26-Sep-2025
#TIME        : 14:53:00
#OWNER       : Unknown
#ELEVANGLE   : 35
#BEAMKV   -kV: 15
#LIVETIME  -s: 2159.67
#REALTIME  -s: 2345.66
#PROBECUR -nA: 1.21997
##WORKING -mm: 15
##D2STDCMP   : InP,(P:21.2452),(In:78.7548)
##SIMILAR    : 1.0
#SPECTRUM    :
207,
6441,
127156,
110492,
49854,
60441,
54099,
56510,
64967,
72117,
76787,
97019,
86216,
90495,
622545,
206027,
61991,
57799,
56432,
55664,
57775,
89821,
67722,
448974,
420012,
578701,
129110,
106527,
84850,
36795,
44489,
29606,
29232,
28911,
28825,
28325,
27528,
27251,
28399,
26791,
25377,
24501,
23806,
23161,
22763,
22662,
23221,
21605,
20644,
20104,
19421,
18559,
17638,
17759,
16771,
16157,
15624,
15311,
14669,
14155,
13679,
13331,
12805,
12307,
11764,
11425,
10909,
10741,
10279,
9929,
9417,
9187,
8872,
8495,
8105,
7664,
7247,
6937,
6729,
6371,
6097,
5771,
5481,
5060,
4756,
4360,
4406,
4028,
3774,
3520,
3293,
3031,
2799,
2709,
2408,
2157,
1933,
1727,
1587,
1342,
1212,
1038,
847,
700,
560,
411,
226,
76,
34,
39,
34,
26,
25,
20,
20,
24,
24,
7,
16,
10,
12,
18,
12,
17,
15,
8,
10,
7,
7,
8,
5,
13,
4,
5,
10,
3,
3,
4,
6,
6,
3,
4,
3,
0,
2,
3,
1,
4,
2,
0,
0,
3,
2,
0,
2,
0,
4,
2,
3,
0,
1,
0,
0,
2,
0,
2,
1,
0,
1,
0,
0,
0,
1,
1,
0,
0,
0,
0,
0,
0,
0,
1,
0,
2,
0,
1,
0,
0,
0,
0,
1,
0,
0,
0,
0,
0,
0,
0,
0,
0,
0,
0,
0,
0,
0,
0,
0,
0,
0,
0,
0,
0,
0,
0,
0,
0,
0,
0,
0,
0,
0,
0,
0,
0,
0,
0,
0,
0,
0,
0,
0,
0,
0,
0,
0,
0,
0,
0,
0,
0,
0,
0,
0,
0,
0,
0,
0,
0,
0,
0,
0,
0,
0,
0,
0,
0,
0,
0,
0,
0,
0,
0,
0,
0,
0,
0,
0,
0,
0,
0,
0,
0,
0,
0,
0,
0,
0,
0,
0,
0,
0,
0,
0,
0,
0,
0,
0,
0,
0,
0,
0,
0,
0,
0,
#ENDOFDATA   :