File: N132962/Standards/15 keV/Ir std.msa
#FORMAT      : EMSA/MAS Spectral Data File
#VERSION     : 1.0
#TITLE       : Ir standard for 'N132962' detector
#NPOINTS     : 4096
#NCOLUMNS    : 1
#XUNITS      : eV
#YUNITS      : counts
#DATATYPE    : Y
#SIGNALTYPE  : EDS
#XLABEL      : Energy (eV)
#YLABEL      : Counts
#XPERCHAN -eV: 9.99778
#OFFSET   -eV: 1.69135
#CHOFFSET    : 0
#DATE        : 27-Sep-2025
#TIME        : 20:49:00
#OWNER       : Unknown
#ELEVANGLE   : 35
#BEAMKV   -kV: 15
#LIVETIME  -s: 2159.71
#REALTIME  -s: 2404.54
#PROBECUR -nA: 1.21177
##WORKING -mm: 15
##D2STDCMP   : Ir,(Ir:100.0000)
##SIMILAR    : 1.0
#SPECTRUM    :
219,
10806,
174977,
63936,
75373,
88699,
106410,
122650,
120780,
124762,
129347,
324483,
137483,
182007,
2325400,
694097,
131896,
59778,
67207,
66191,
56857,
56667,
56952,
55423,
55226,
55784,
55577,
55523,
58244,
58608,
53729,
51964,
51277,
50827,
50047,
48985,
47782,
47038,
46068,
44707,
44091,
42766,
41902,
40575,
39604,
39363,
38920,
36800,
35444,
34901,
33963,
32723,
31633,
31525,
30559,
29062,
28725,
31232,
29625,
26096,
25202,
24557,
23986,
23057,
25378,
89781,
77683,
21343,
19598,
19165,
18081,
17265,
16971,
16055,
15752,
17481,
26867,
27401,
32162,
15343,
13120,
11219,
10262,
9762,
9389,
8846,
8589,
8113,
7817,
9690,
7926,
6707,
6317,
5518,
4983,
4695,
4167,
3803,
3420,
3066,
2737,
2378,
2015,
1751,
1382,
980,
635,
247,
74,
67,
80,
88,
79,
67,
47,
68,
40,
34,
43,
44,
28,
57,
40,
56,
38,
41,
36,
36,
35,
33,
27,
41,
37,
23,
31,
27,
16,
13,
21,
11,
28,
24,
19,
13,
10,
13,
12,
11,
10,
6,
13,
14,
13,
12,
5,
9,
6,
4,
6,
10,
2,
3,
3,
4,
6,
4,
2,
3,
2,
3,
1,
3,
4,
1,
2,
3,
1,
2,
2,
1,
2,
0,
0,
1,
0,
0,
2,
0,
0,
0,
1,
0,
0,
0,
0,
0,
0,
1,
0,
1,
0,
0,
0,
0,
0,
0,
0,
0,
0,
1,
0,
0,
0,
0,
0,
0,
0,
0,
0,
0,
0,
0,
0,
0,
0,
0,
0,
0,
0,
0,
0,
0,
0,
0,
0,
0,
0,
0,
0,
0,
0,
0,
0,
0,
0,
0,
0,
0,
0,
0,
0,
0,
0,
0,
0,
0,
0,
0,
0,
0,
0,
0,
0,
0,
0,
0,
0,
0,
0,
0,
0,
0,
0,
0,
0,
0,
0,
0,
0,
0,
0,
0,
0,
0,
0,
0,
0,
0,
0,
0,
0,
0,
0,
0,
#ENDOFDATA   :