File: N132962/Standards/15 keV/KBr std.msa
#FORMAT      : EMSA/MAS Spectral Data File
#VERSION     : 1.0
#TITLE       : KBr standard for 'N132962' detector
#NPOINTS     : 4096
#NCOLUMNS    : 1
#XUNITS      : eV
#YUNITS      : counts
#DATATYPE    : Y
#SIGNALTYPE  : EDS
#XLABEL      : Energy (eV)
#YLABEL      : Counts
#XPERCHAN -eV: 9.99778
#OFFSET   -eV: 1.69135
#CHOFFSET    : 0
#DATE        : 26-Sep-2025
#TIME        : 23:40:00
#OWNER       : Unknown
#ELEVANGLE   : 35
#BEAMKV   -kV: 15
#LIVETIME  -s: 1681.93
#REALTIME  -s: 1835.82
#PROBECUR -nA: 1.21571
##WORKING -mm: 15
##D2STDCMP   : KBr,(K:32.8551),(Br:67.1449)
##SIMILAR    : 2.1
#SPECTRUM    :
183,
2745,
72838,
23699,
40399,
54838,
62308,
67295,
72598,
141576,
273431,
1402836,
42238,
38624,
31681,
32701,
33355,
33492,
33091,
33642,
33409,
36178,
33383,
132544,
555747,
45841,
82725,
22897,
22373,
21682,
21441,
20858,
20697,
19576,
21295,
19573,
18441,
17406,
16793,
16668,
15440,
15139,
14875,
14118,
13742,
13730,
14252,
12582,
12199,
11661,
11304,
10519,
10333,
10170,
9726,
9244,
8930,
8551,
8222,
8107,
7577,
7369,
7135,
6958,
6441,
6274,
6011,
5757,
5632,
5448,
5149,
4935,
4640,
4492,
4277,
4109,
3784,
3710,
3471,
3232,
3101,
2918,
2828,
2588,
3776,
8552,
3247,
1954,
1779,
1712,
1497,
1467,
1345,
1183,
1395,
1741,
1000,
735,
629,
538,
458,
358,
264,
172,
90,
43,
13,
15,
23,
13,
9,
13,
8,
5,
6,
6,
6,
2,
4,
7,
5,
2,
4,
3,
1,
7,
5,
2,
5,
3,
0,
4,
2,
3,
0,
2,
1,
2,
1,
0,
0,
2,
1,
0,
2,
1,
2,
0,
1,
1,
2,
1,
3,
1,
1,
2,
1,
0,
0,
1,
0,
2,
0,
0,
1,
0,
1,
0,
0,
0,
0,
0,
0,
0,
0,
0,
0,
0,
0,
0,
1,
0,
0,
0,
0,
0,
0,
1,
0,
0,
0,
0,
0,
0,
0,
0,
0,
0,
0,
0,
0,
0,
0,
0,
0,
0,
0,
0,
0,
0,
0,
0,
0,
0,
0,
0,
0,
0,
0,
0,
0,
0,
0,
0,
0,
0,
0,
0,
0,
0,
0,
0,
0,
0,
0,
0,
0,
0,
0,
0,
0,
0,
0,
0,
0,
0,
0,
0,
0,
0,
0,
0,
0,
0,
0,
0,
0,
0,
0,
0,
0,
0,
0,
0,
0,
0,
0,
0,
0,
0,
0,
0,
0,
0,
0,
0,
0,
0,
0,
0,
0,
0,
0,
0,
0,
0,
0,
0,
0,
0,
0,
0,
0,
0,
#ENDOFDATA   :