File: N132962/Standards/15 keV/KCl std.msa
#FORMAT      : EMSA/MAS Spectral Data File
#VERSION     : 1.0
#TITLE       : KCl standard for 'N132962' detector
#NPOINTS     : 4096
#NCOLUMNS    : 1
#XUNITS      : eV
#YUNITS      : counts
#DATATYPE    : Y
#SIGNALTYPE  : EDS
#XLABEL      : Energy (eV)
#YLABEL      : Counts
#XPERCHAN -eV: 9.99778
#OFFSET   -eV: 1.69135
#CHOFFSET    : 0
#DATE        : 30-Sep-2025
#TIME        : 15:34:00
#OWNER       : Unknown
#ELEVANGLE   : 35
#BEAMKV   -kV: 15
#LIVETIME  -s: 1441.14
#REALTIME  -s: 1555.13
#PROBECUR -nA: 1.21543
##WORKING -mm: 15
##D2STDCMP   : KCl,(Cl:47.5531),(K:52.4469)
##SIMILAR    : 7.5
#SPECTRUM    :
136,
19241,
97960,
14000,
33047,
29962,
49534,
38784,
41451,
42205,
43093,
54015,
42947,
40678,
32137,
31052,
30976,
30411,
136033,
1047670,
145466,
21484,
19017,
141731,
658387,
38499,
84850,
12157,
12836,
11494,
11608,
11278,
10871,
10644,
10507,
10258,
9663,
10302,
9965,
8944,
8477,
8074,
9189,
8646,
7496,
7210,
6944,
6934,
6474,
6023,
5854,
5510,
5206,
5081,
4861,
4693,
4665,
4492,
4230,
3990,
3812,
3682,
3652,
3347,
3244,
3123,
3003,
2850,
2784,
2665,
2496,
2406,
2217,
2161,
2049,
1911,
1798,
1739,
1596,
1446,
1493,
1300,
1249,
1141,
1142,
1037,
977,
883,
804,
744,
657,
652,
583,
496,
471,
430,
340,
308,
240,
222,
182,
127,
114,
65,
32,
15,
11,
7,
6,
7,
0,
10,
1,
3,
5,
5,
0,
2,
2,
1,
0,
1,
3,
1,
0,
4,
2,
0,
0,
0,
0,
0,
1,
0,
0,
1,
0,
0,
1,
0,
1,
0,
0,
0,
1,
0,
0,
1,
0,
0,
0,
0,
0,
0,
0,
0,
0,
0,
0,
0,
0,
0,
0,
0,
0,
0,
0,
0,
0,
0,
0,
0,
0,
0,
0,
0,
0,
0,
0,
1,
0,
0,
0,
0,
0,
0,
0,
0,
0,
0,
0,
0,
0,
0,
0,
0,
0,
0,
0,
0,
0,
0,
0,
0,
0,
0,
0,
0,
0,
0,
0,
0,
0,
0,
0,
0,
0,
0,
0,
0,
0,
0,
0,
0,
0,
0,
0,
0,
0,
0,
0,
0,
0,
0,
0,
0,
0,
0,
0,
0,
0,
0,
0,
0,
0,
0,
0,
0,
0,
0,
0,
0,
0,
0,
0,
0,
0,
0,
0,
0,
0,
0,
0,
0,
0,
0,
0,
0,
0,
0,
0,
0,
0,
0,
0,
0,
0,
0,
0,
0,
0,
0,
0,
0,
0,
0,
0,
0,
0,
0,
0,
0,
0,
0,
#ENDOFDATA   :