File: N132962/Standards/15 keV/La std.msa
#FORMAT      : EMSA/MAS Spectral Data File
#VERSION     : 1.0
#TITLE       : La standard for 'N132962' detector
#NPOINTS     : 4096
#NCOLUMNS    : 1
#XUNITS      : eV
#YUNITS      : counts
#DATATYPE    : Y
#SIGNALTYPE  : EDS
#XLABEL      : Energy (eV)
#YLABEL      : Counts
#XPERCHAN -eV: 9.99778
#OFFSET   -eV: 1.69135
#CHOFFSET    : 0
#DATE        : 25-Sep-2025
#TIME        : 17:02:00
#OWNER       : Unknown
#ELEVANGLE   : 35
#BEAMKV   -kV: 15
#LIVETIME  -s: 1200.02
#REALTIME  -s: 1270.54
#PROBECUR -nA: 1.20429
##WORKING -mm: 15
##D2STDCMP   : La,(La:100.0000)
##SIMILAR    : 1.6
#SPECTRUM    :
123,
112446,
39733,
32448,
68318,
67287,
112975,
34989,
36904,
25922,
27493,
29021,
30626,
31226,
27489,
27514,
27108,
27062,
26464,
25948,
25156,
25930,
23469,
22870,
22396,
21320,
20983,
19686,
19320,
24534,
22008,
17865,
24052,
281061,
49539,
20384,
158165,
41783,
40010,
33343,
12607,
24504,
16263,
16550,
12290,
10794,
9771,
9001,
8788,
8727,
8531,
8251,
8000,
7915,
7602,
7494,
6953,
6760,
6510,
6480,
6339,
6014,
5832,
5761,
5394,
5157,
5143,
4977,
4717,
4528,
4371,
4310,
4042,
3823,
3700,
3583,
3396,
3276,
3029,
2938,
2778,
2666,
2477,
2337,
2185,
2016,
2018,
1782,
1713,
1663,
1459,
1387,
1204,
1183,
1115,
966,
919,
761,
699,
601,
507,
471,
385,
310,
216,
160,
90,
27,
9,
7,
8,
6,
11,
10,
9,
5,
5,
9,
4,
7,
6,
8,
11,
9,
11,
3,
7,
5,
9,
9,
5,
8,
2,
4,
3,
1,
1,
6,
0,
2,
2,
0,
4,
0,
1,
1,
1,
0,
0,
0,
0,
2,
0,
0,
0,
0,
0,
1,
0,
1,
0,
0,
0,
0,
0,
0,
0,
0,
0,
0,
1,
1,
1,
0,
0,
0,
0,
0,
0,
0,
0,
0,
0,
1,
0,
0,
0,
0,
0,
0,
1,
0,
0,
0,
0,
0,
0,
0,
0,
0,
0,
0,
0,
0,
0,
0,
0,
0,
0,
0,
0,
0,
0,
0,
0,
0,
0,
0,
0,
0,
0,
0,
0,
0,
0,
0,
0,
0,
0,
0,
0,
0,
0,
0,
0,
0,
0,
0,
0,
0,
0,
0,
0,
0,
0,
0,
0,
0,
0,
0,
0,
0,
0,
0,
0,
0,
0,
0,
0,
0,
0,
0,
0,
0,
0,
0,
0,
0,
0,
0,
0,
0,
0,
0,
0,
0,
0,
0,
0,
0,
0,
0,
0,
0,
0,
0,
0,
0,
0,
0,
0,
0,
0,
0,
#ENDOFDATA   :