File: N132962/Standards/15 keV/LaB6 std.msa
#FORMAT      : EMSA/MAS Spectral Data File
#VERSION     : 1.0
#TITLE       : LaB6 standard for 'N132962' detector
#NPOINTS     : 4096
#NCOLUMNS    : 1
#XUNITS      : eV
#YUNITS      : counts
#DATATYPE    : Y
#SIGNALTYPE  : EDS
#XLABEL      : Energy (eV)
#YLABEL      : Counts
#XPERCHAN -eV: 9.99778
#OFFSET   -eV: 1.69135
#CHOFFSET    : 0
#DATE        : 27-Sep-2025
#TIME        : 19:46:00
#OWNER       : Unknown
#ELEVANGLE   : 35
#BEAMKV   -kV: 15
#LIVETIME  -s: 1677.89
#REALTIME  -s: 1776.41
#PROBECUR -nA: 1.21113
##WORKING -mm: 15
##D2STDCMP   : LaB6,(B:31.8307),(La:68.1693)
##SIMILAR    : 1.6
#SPECTRUM    :
158,
154143,
74520,
42837,
95895,
91604,
156931,
53979,
52066,
36563,
38555,
40264,
42638,
43341,
38299,
38484,
38158,
37599,
36611,
35895,
35338,
35853,
32461,
32024,
31097,
29518,
29089,
27375,
27028,
34196,
30274,
24974,
31901,
393220,
67634,
28440,
220697,
58263,
56779,
46254,
17716,
34903,
22619,
23445,
17119,
15283,
14482,
12321,
12392,
12023,
11921,
11407,
11209,
10869,
10419,
10186,
9843,
9739,
9491,
9154,
8655,
8402,
8094,
7928,
7465,
7176,
6990,
6934,
6657,
6456,
6103,
5954,
5668,
5414,
5119,
5178,
4695,
4435,
4279,
4039,
3954,
3670,
3441,
3274,
3181,
2828,
2653,
2491,
2361,
2230,
2089,
1870,
1694,
1613,
1480,
1316,
1121,
1029,
967,
862,
762,
626,
519,
481,
314,
210,
107,
36,
20,
16,
20,
18,
14,
19,
14,
10,
13,
11,
8,
6,
9,
9,
11,
17,
16,
6,
8,
9,
4,
2,
7,
3,
4,
2,
6,
2,
4,
5,
3,
1,
2,
2,
4,
5,
2,
1,
0,
2,
0,
4,
1,
0,
0,
4,
3,
0,
1,
0,
0,
2,
1,
0,
0,
0,
0,
0,
0,
0,
0,
2,
0,
0,
0,
1,
0,
0,
0,
1,
0,
0,
0,
0,
0,
0,
0,
0,
0,
1,
0,
0,
0,
1,
0,
0,
0,
0,
0,
0,
1,
0,
0,
0,
0,
0,
0,
0,
0,
0,
0,
0,
0,
0,
0,
0,
0,
0,
0,
0,
0,
0,
0,
0,
0,
0,
0,
0,
0,
0,
0,
0,
0,
0,
0,
0,
0,
0,
0,
0,
0,
0,
0,
0,
0,
0,
0,
0,
0,
0,
0,
0,
0,
0,
0,
0,
0,
0,
0,
0,
0,
0,
0,
0,
0,
0,
0,
0,
0,
0,
0,
0,
0,
0,
0,
0,
0,
0,
0,
0,
0,
0,
0,
0,
0,
0,
0,
0,
0,
0,
0,
0,
0,
0,
0,
0,
#ENDOFDATA   :