File: N132962/Standards/15 keV/LaF3 std.msa
#FORMAT      : EMSA/MAS Spectral Data File
#VERSION     : 1.0
#TITLE       : LaF3 standard for 'N132962' detector
#NPOINTS     : 4096
#NCOLUMNS    : 1
#XUNITS      : eV
#YUNITS      : counts
#DATATYPE    : Y
#SIGNALTYPE  : EDS
#XLABEL      : Energy (eV)
#YLABEL      : Counts
#XPERCHAN -eV: 9.99778
#OFFSET   -eV: 1.69135
#CHOFFSET    : 0
#DATE        : 26-Sep-2025
#TIME        : 18:13:00
#OWNER       : Unknown
#ELEVANGLE   : 35
#BEAMKV   -kV: 15
#LIVETIME  -s: 1194.07
#REALTIME  -s: 1293.46
#PROBECUR -nA: 1.21605
##WORKING -mm: 15
##D2STDCMP   : LaF3,(F:29.0939),(La:70.9061)
##SIMILAR    : 16.8
#SPECTRUM    :
123,
5822,
83458,
55410,
117191,
906131,
93731,
32727,
35184,
27389,
28691,
30974,
31819,
34058,
28639,
28891,
28982,
28832,
28040,
28033,
27446,
29312,
25939,
25418,
24877,
23390,
23444,
22106,
21470,
27336,
24209,
19919,
26487,
301592,
52948,
23000,
170969,
45622,
45288,
37368,
14172,
27489,
18324,
18549,
13573,
12473,
12615,
10204,
9943,
9775,
9657,
9327,
9220,
8984,
8593,
8404,
7962,
7836,
7436,
7404,
7131,
6879,
6688,
6404,
6075,
6093,
5873,
5462,
5392,
5445,
5103,
4742,
4661,
4504,
4256,
4133,
3922,
3682,
3562,
3293,
3192,
3016,
2827,
2758,
2593,
2374,
2209,
2109,
1978,
1790,
1689,
1588,
1489,
1390,
1276,
1114,
1000,
904,
911,
728,
633,
514,
438,
342,
277,
200,
108,
53,
21,
19,
15,
13,
8,
5,
10,
5,
11,
2,
9,
7,
6,
11,
9,
13,
11,
5,
4,
10,
6,
5,
7,
5,
3,
4,
7,
2,
3,
6,
1,
3,
2,
3,
2,
3,
1,
1,
0,
0,
0,
1,
1,
0,
0,
0,
2,
0,
1,
0,
0,
0,
0,
1,
0,
0,
0,
0,
0,
0,
1,
0,
0,
0,
0,
0,
0,
0,
0,
0,
1,
0,
0,
0,
1,
0,
0,
0,
0,
0,
0,
0,
0,
0,
0,
0,
0,
0,
0,
0,
0,
0,
0,
0,
0,
0,
0,
0,
0,
0,
0,
0,
0,
0,
0,
0,
0,
0,
0,
0,
0,
0,
0,
0,
0,
0,
0,
0,
0,
0,
0,
0,
0,
0,
0,
0,
0,
0,
0,
0,
0,
0,
0,
0,
0,
0,
0,
0,
0,
0,
0,
0,
0,
0,
0,
0,
0,
0,
0,
0,
0,
0,
0,
0,
0,
0,
0,
0,
0,
0,
0,
0,
0,
0,
0,
0,
0,
0,
0,
0,
0,
0,
0,
0,
0,
0,
0,
0,
0,
0,
0,
0,
0,
0,
0,
0,
#ENDOFDATA   :