File: N132962/Standards/15 keV/LaP5O14 std.msa
#FORMAT      : EMSA/MAS Spectral Data File
#VERSION     : 1.0
#TITLE       : LaP5O14 standard for 'N132962' detector
#NPOINTS     : 4096
#NCOLUMNS    : 1
#XUNITS      : eV
#YUNITS      : counts
#DATATYPE    : Y
#SIGNALTYPE  : EDS
#XLABEL      : Energy (eV)
#YLABEL      : Counts
#XPERCHAN -eV: 9.99778
#OFFSET   -eV: 1.69135
#CHOFFSET    : 0
#DATE        : 17-Mar-2025
#TIME        : 17:16:00
#OWNER       : Unknown
#ELEVANGLE   : 35
#BEAMKV   -kV: 15
#LIVETIME  -s: 1917.72
#REALTIME  -s: 2024.55
#PROBECUR -nA: 1.02589
##WORKING -mm: 15
##D2STDCMP   : LaP5O14,(O:43.2606),(P:29.9113),(La:26.8281)
##SIMILAR    : 5.1
#SPECTRUM    :
171,
2641,
124583,
73310,
562245,
32017,
65352,
36105,
38830,
33138,
34692,
36252,
38184,
40558,
529069,
158420,
25164,
22453,
25105,
21573,
20822,
20919,
19413,
18728,
18283,
17262,
17057,
16191,
15714,
18580,
16451,
14100,
15991,
131923,
27767,
14366,
76456,
23822,
22594,
19773,
10410,
15801,
11575,
11359,
9172,
8496,
7899,
7369,
7317,
6960,
6660,
6490,
6261,
6071,
5795,
5527,
5323,
5094,
5122,
4752,
4609,
4517,
4519,
4214,
3889,
3745,
3545,
3534,
3350,
3206,
3139,
2913,
2797,
2671,
2513,
2519,
2249,
2073,
2059,
1953,
1878,
1661,
1652,
1529,
1428,
1334,
1269,
1175,
1097,
1069,
875,
825,
792,
732,
614,
614,
492,
481,
419,
360,
334,
243,
175,
175,
129,
81,
43,
9,
8,
1,
5,
4,
2,
0,
1,
1,
3,
3,
6,
1,
1,
1,
1,
2,
2,
1,
3,
3,
1,
2,
3,
3,
1,
1,
0,
0,
2,
0,
0,
1,
0,
0,
0,
0,
3,
0,
1,
2,
0,
1,
1,
0,
0,
0,
1,
0,
0,
0,
0,
1,
0,
0,
0,
0,
0,
0,
0,
0,
0,
0,
0,
0,
0,
0,
0,
0,
0,
0,
0,
0,
0,
0,
0,
0,
0,
0,
0,
0,
0,
0,
0,
0,
0,
0,
0,
0,
0,
0,
0,
0,
0,
0,
0,
0,
0,
0,
0,
0,
0,
0,
0,
0,
0,
0,
0,
0,
0,
0,
0,
0,
0,
0,
0,
0,
0,
0,
0,
0,
0,
0,
0,
0,
0,
0,
0,
0,
0,
0,
0,
0,
0,
0,
0,
0,
0,
0,
0,
0,
0,
0,
0,
0,
0,
0,
0,
0,
0,
0,
0,
0,
0,
0,
0,
0,
0,
0,
0,
0,
0,
0,
0,
0,
0,
0,
0,
0,
0,
0,
0,
0,
0,
0,
0,
0,
0,
0,
0,
0,
0,
0,
0,
0,
0,
0,
#ENDOFDATA   :