File: N132962/Standards/15 keV/Lu std.msa
#FORMAT      : EMSA/MAS Spectral Data File
#VERSION     : 1.0
#TITLE       : Lu standard for 'N132962' detector
#NPOINTS     : 4096
#NCOLUMNS    : 1
#XUNITS      : eV
#YUNITS      : counts
#DATATYPE    : Y
#SIGNALTYPE  : EDS
#XLABEL      : Energy (eV)
#YLABEL      : Counts
#XPERCHAN -eV: 9.99778
#OFFSET   -eV: 1.69135
#CHOFFSET    : 0
#DATE        : 25-Sep-2025
#TIME        : 17:20:00
#OWNER       : Unknown
#ELEVANGLE   : 35
#BEAMKV   -kV: 15
#LIVETIME  -s: 1439.9
#REALTIME  -s: 1580.02
#PROBECUR -nA: 1.20749
##WORKING -mm: 15
##D2STDCMP   : Lu,(Lu:100.0000)
##SIMILAR    : 21.7
#SPECTRUM    :
153,
5065,
82552,
54817,
170484,
127145,
61615,
67312,
72302,
161889,
78362,
980821,
264500,
77345,
37830,
42934,
35857,
35741,
34182,
34826,
34224,
33892,
34078,
35993,
32757,
32224,
32373,
30786,
30532,
30063,
29203,
28659,
29164,
27694,
26221,
25877,
25554,
24389,
23823,
23278,
22382,
21966,
21290,
20516,
19828,
19682,
19519,
18399,
22759,
18491,
16813,
16195,
15789,
16619,
63620,
104025,
16610,
13953,
15457,
12863,
12228,
15994,
49629,
25053,
21731,
24882,
10878,
9482,
8639,
8666,
8330,
8032,
12033,
10492,
7517,
8203,
6512,
6210,
5784,
5240,
5054,
4934,
4483,
4345,
4209,
3943,
3664,
3495,
3237,
3105,
2842,
2600,
2479,
2377,
2046,
1894,
1742,
1578,
1366,
1228,
1064,
955,
761,
642,
477,
376,
189,
65,
37,
42,
35,
29,
27,
32,
19,
25,
29,
24,
15,
23,
20,
19,
20,
15,
13,
17,
22,
16,
7,
14,
8,
9,
12,
9,
11,
9,
8,
9,
5,
7,
8,
6,
4,
8,
6,
3,
5,
3,
5,
1,
4,
1,
3,
5,
3,
2,
2,
3,
1,
1,
0,
1,
1,
0,
0,
1,
0,
0,
0,
1,
1,
1,
0,
0,
1,
0,
1,
0,
0,
0,
0,
0,
0,
0,
0,
1,
0,
0,
0,
0,
0,
0,
0,
0,
0,
0,
0,
0,
0,
1,
0,
0,
0,
0,
0,
0,
0,
0,
0,
0,
0,
0,
0,
0,
0,
0,
0,
0,
0,
0,
0,
0,
0,
0,
0,
0,
0,
0,
0,
0,
0,
0,
0,
0,
0,
0,
0,
0,
0,
0,
0,
0,
0,
0,
0,
0,
0,
0,
0,
0,
0,
0,
0,
0,
0,
0,
0,
0,
0,
0,
0,
0,
0,
0,
0,
0,
0,
0,
0,
0,
0,
0,
0,
0,
0,
0,
0,
0,
0,
0,
0,
0,
0,
0,
0,
0,
0,
0,
0,
0,
0,
0,
0,
0,
#ENDOFDATA   :