File: N132962/Standards/15 keV/LuF3 std.msa
#FORMAT      : EMSA/MAS Spectral Data File
#VERSION     : 1.0
#TITLE       : LuF3 standard for 'N132962' detector
#NPOINTS     : 4096
#NCOLUMNS    : 1
#XUNITS      : eV
#YUNITS      : counts
#DATATYPE    : Y
#SIGNALTYPE  : EDS
#XLABEL      : Energy (eV)
#YLABEL      : Counts
#XPERCHAN -eV: 9.99778
#OFFSET   -eV: 1.69135
#CHOFFSET    : 0
#DATE        : 26-Sep-2025
#TIME        : 16:08:00
#OWNER       : Unknown
#ELEVANGLE   : 35
#BEAMKV   -kV: 15
#LIVETIME  -s: 1437.79
#REALTIME  -s: 1561.64
#PROBECUR -nA: 1.22066
##WORKING -mm: 15
##D2STDCMP   : LuF3,(F:24.5709),(Lu:75.4291)
##SIMILAR    : 14.8
#SPECTRUM    :
153,
4876,
73474,
43108,
68494,
541838,
48197,
51271,
57897,
128092,
63456,
802153,
203009,
62002,
31470,
35065,
31153,
28771,
28871,
28712,
29297,
29770,
29436,
30588,
28364,
27699,
27187,
26612,
26480,
25598,
25007,
24766,
24183,
23453,
22834,
22454,
21834,
21178,
20917,
20687,
19485,
18911,
18823,
17989,
17349,
17381,
18640,
15987,
19532,
16228,
14839,
14278,
13869,
14204,
54649,
89348,
14437,
11936,
11363,
11052,
10602,
14048,
42305,
21390,
18469,
21574,
8882,
7803,
7440,
7111,
7074,
6994,
10309,
8852,
6453,
7096,
5596,
5293,
4894,
4505,
4233,
4201,
4003,
3763,
3515,
3333,
3174,
2924,
2772,
2539,
2293,
2216,
1915,
1843,
1672,
1467,
1403,
1252,
1055,
942,
834,
602,
478,
326,
246,
152,
69,
30,
30,
28,
37,
21,
15,
18,
15,
16,
16,
20,
17,
10,
11,
10,
14,
10,
10,
17,
24,
15,
11,
9,
7,
8,
8,
5,
8,
4,
8,
10,
6,
10,
7,
9,
5,
2,
6,
4,
6,
4,
8,
3,
3,
2,
3,
0,
0,
1,
2,
1,
2,
0,
1,
0,
2,
0,
0,
1,
0,
0,
0,
2,
0,
2,
0,
0,
0,
0,
0,
0,
0,
1,
0,
0,
0,
0,
0,
0,
0,
0,
0,
0,
0,
0,
0,
0,
1,
0,
0,
0,
0,
0,
0,
0,
0,
0,
0,
0,
0,
0,
0,
0,
0,
0,
0,
0,
0,
0,
0,
0,
0,
0,
0,
0,
0,
0,
0,
0,
0,
0,
0,
0,
0,
0,
0,
0,
0,
0,
0,
0,
0,
0,
0,
0,
0,
0,
0,
0,
0,
0,
0,
0,
0,
0,
0,
0,
0,
0,
0,
0,
0,
0,
0,
0,
0,
0,
0,
0,
0,
0,
0,
0,
0,
0,
0,
0,
0,
0,
0,
0,
0,
0,
0,
0,
0,
0,
0,
0,
0,
0,
0,
0,
0,
0,
0,
0,
#ENDOFDATA   :