File: N132962/Standards/15 keV/LuP5O14 std.msa
#FORMAT      : EMSA/MAS Spectral Data File
#VERSION     : 1.0
#TITLE       : LuP5O14 standard for 'N132962' detector
#NPOINTS     : 4096
#NCOLUMNS    : 1
#XUNITS      : eV
#YUNITS      : counts
#DATATYPE    : Y
#SIGNALTYPE  : EDS
#XLABEL      : Energy (eV)
#YLABEL      : Counts
#XPERCHAN -eV: 9.99778
#OFFSET   -eV: 1.69135
#CHOFFSET    : 0
#DATE        : 17-Mar-2025
#TIME        : 15:48:00
#OWNER       : Unknown
#ELEVANGLE   : 35
#BEAMKV   -kV: 15
#LIVETIME  -s: 1199.08
#REALTIME  -s: 1270.2
#PROBECUR -nA: 1.0242
##WORKING -mm: 15
##D2STDCMP   : LuP5O14,(O:40.4437),(P:27.9637),(Lu:31.5926)
##SIMILAR    : 1.7
#SPECTRUM    :
117,
1882,
87355,
38270,
258122,
20349,
23770,
26748,
29252,
51536,
31110,
247834,
83014,
36701,
290936,
91319,
15884,
14323,
15504,
14024,
13848,
13600,
13105,
13158,
12689,
12162,
12732,
11442,
11144,
11176,
10497,
10024,
9626,
9436,
9076,
8766,
8381,
8131,
7894,
7839,
7253,
7164,
6977,
6834,
6541,
6394,
6323,
5745,
6535,
5759,
5247,
5112,
4796,
5120,
14977,
24171,
4772,
4137,
3923,
3793,
3575,
4421,
11579,
6302,
5532,
6198,
3075,
2685,
2771,
2459,
2362,
2349,
3119,
2770,
2056,
2182,
1834,
1777,
1581,
1536,
1434,
1388,
1326,
1196,
1195,
1060,
975,
900,
844,
832,
737,
671,
629,
579,
524,
476,
428,
360,
319,
307,
260,
210,
175,
150,
83,
58,
36,
12,
4,
3,
4,
3,
2,
3,
2,
2,
1,
3,
3,
0,
1,
4,
0,
1,
3,
3,
2,
1,
0,
1,
3,
2,
1,
1,
1,
0,
0,
0,
1,
3,
0,
0,
1,
0,
0,
0,
2,
1,
1,
1,
0,
0,
0,
0,
1,
0,
1,
1,
0,
0,
0,
1,
0,
0,
0,
0,
0,
0,
0,
0,
0,
0,
0,
0,
1,
0,
0,
0,
0,
0,
0,
0,
0,
0,
0,
0,
0,
0,
0,
0,
0,
0,
0,
0,
0,
0,
0,
0,
0,
0,
0,
0,
0,
0,
0,
0,
0,
0,
0,
0,
0,
0,
0,
0,
0,
0,
0,
0,
0,
0,
0,
0,
0,
0,
0,
0,
0,
0,
0,
0,
0,
0,
0,
0,
0,
0,
0,
0,
0,
0,
0,
0,
0,
0,
0,
0,
0,
0,
0,
0,
0,
0,
0,
0,
0,
0,
0,
0,
0,
0,
0,
0,
0,
0,
0,
0,
0,
0,
0,
0,
0,
0,
0,
0,
0,
0,
0,
0,
0,
0,
0,
0,
0,
0,
0,
0,
0,
0,
0,
0,
0,
0,
0,
0,
#ENDOFDATA   :