File: N132962/Standards/15 keV/MgO std.msa
#FORMAT      : EMSA/MAS Spectral Data File
#VERSION     : 1.0
#TITLE       : MgO standard for 'N132962' detector
#NPOINTS     : 4096
#NCOLUMNS    : 1
#XUNITS      : eV
#YUNITS      : counts
#DATATYPE    : Y
#SIGNALTYPE  : EDS
#XLABEL      : Energy (eV)
#YLABEL      : Counts
#XPERCHAN -eV: 9.99778
#OFFSET   -eV: 1.69135
#CHOFFSET    : 0
#DATE        : 27-Sep-2025
#TIME        : 16:08:00
#OWNER       : Unknown
#ELEVANGLE   : 35
#BEAMKV   -kV: 15
#LIVETIME  -s: 1439.45
#REALTIME  -s: 1562.67
#PROBECUR -nA: 1.21
##WORKING -mm: 15
##D2STDCMP   : MgO,(O:39.6958),(Mg:60.3042)
##SIMILAR    : 1.3
#SPECTRUM    :
164,
1523,
36217,
64866,
574590,
19189,
25369,
35439,
63067,
3372610,
15348,
14279,
16813,
21579,
13679,
14009,
13793,
13926,
25635,
12167,
11779,
11542,
10654,
10237,
10107,
9427,
9684,
8854,
8361,
8084,
7559,
7164,
6899,
6603,
6300,
6072,
5819,
5687,
5405,
4995,
4867,
4764,
4553,
4358,
3971,
3894,
3838,
3596,
3534,
3322,
3178,
3148,
2988,
2919,
2686,
2513,
2431,
2412,
2345,
2199,
2087,
2085,
1869,
1779,
1706,
1695,
1548,
1441,
1449,
1323,
1281,
1302,
1157,
1124,
1034,
1004,
953,
909,
848,
802,
777,
682,
675,
577,
572,
509,
517,
436,
397,
397,
346,
313,
292,
279,
234,
216,
206,
175,
160,
125,
123,
93,
73,
57,
43,
32,
17,
6,
1,
0,
4,
3,
0,
0,
0,
0,
0,
0,
0,
0,
1,
1,
0,
0,
0,
1,
0,
1,
0,
0,
0,
0,
1,
0,
0,
0,
0,
0,
0,
0,
0,
0,
0,
0,
0,
0,
0,
0,
0,
0,
0,
0,
0,
0,
0,
0,
0,
0,
0,
0,
0,
0,
0,
0,
0,
0,
0,
0,
0,
0,
0,
0,
0,
0,
0,
0,
0,
0,
0,
1,
0,
0,
0,
0,
0,
0,
0,
0,
0,
0,
0,
0,
0,
0,
0,
0,
0,
0,
0,
0,
0,
0,
0,
0,
0,
0,
0,
0,
0,
0,
0,
0,
0,
0,
0,
0,
0,
0,
0,
0,
0,
0,
0,
0,
0,
0,
0,
0,
0,
0,
0,
0,
0,
0,
0,
0,
0,
0,
0,
0,
0,
0,
0,
0,
0,
0,
0,
0,
0,
0,
0,
0,
0,
0,
0,
0,
0,
0,
0,
0,
0,
0,
0,
0,
0,
0,
0,
0,
0,
0,
0,
0,
0,
0,
0,
0,
0,
0,
0,
0,
0,
0,
0,
0,
0,
0,
0,
0,
0,
0,
0,
0,
0,
0,
#ENDOFDATA   :