File: N132962/Standards/15 keV/Mn std.msa
#FORMAT      : EMSA/MAS Spectral Data File
#VERSION     : 1.0
#TITLE       : Mn standard for 'N132962' detector
#NPOINTS     : 4096
#NCOLUMNS    : 1
#XUNITS      : eV
#YUNITS      : counts
#DATATYPE    : Y
#SIGNALTYPE  : EDS
#XLABEL      : Energy (eV)
#YLABEL      : Counts
#XPERCHAN -eV: 9.99778
#OFFSET   -eV: 1.69135
#CHOFFSET    : 0
#DATE        : 30-Sep-2025
#TIME        : 17:14:00
#OWNER       : Unknown
#ELEVANGLE   : 35
#BEAMKV   -kV: 15
#LIVETIME  -s: 1200.72
#REALTIME  -s: 1285.91
#PROBECUR -nA: 1.23069
##WORKING -mm: 15
##D2STDCMP   : Mn,(Mn:100.0000)
##SIMILAR    : 7.4
#SPECTRUM    :
123,
2347,
67326,
56389,
470445,
82612,
17137,
21674,
24729,
32184,
30175,
29796,
31437,
31698,
28051,
27299,
26743,
25877,
24946,
24632,
23007,
22631,
21362,
20702,
19679,
18818,
18448,
17587,
16774,
16884,
16897,
14877,
15029,
13849,
13463,
12993,
12596,
11940,
11248,
11072,
11625,
29761,
675413,
63932,
10072,
11592,
74315,
32610,
6779,
6531,
6527,
6382,
6029,
5949,
5645,
5559,
5241,
5269,
5138,
4778,
4739,
4536,
4343,
4259,
4004,
3940,
3743,
3446,
3488,
3350,
3278,
3091,
2803,
2783,
2785,
2713,
2515,
2374,
2166,
2180,
1976,
1842,
1738,
1748,
2094,
1622,
1329,
1258,
1237,
1195,
1062,
950,
855,
797,
729,
676,
573,
528,
473,
402,
340,
292,
218,
205,
152,
95,
54,
28,
15,
10,
17,
17,
10,
7,
6,
1,
5,
6,
13,
5,
6,
6,
13,
10,
14,
2,
6,
7,
5,
3,
3,
6,
6,
6,
4,
4,
5,
3,
5,
1,
0,
1,
0,
2,
2,
0,
1,
1,
0,
0,
0,
0,
0,
1,
0,
0,
0,
0,
0,
0,
0,
1,
0,
0,
1,
0,
0,
0,
0,
0,
0,
0,
0,
0,
0,
0,
0,
1,
0,
0,
0,
0,
0,
0,
0,
0,
0,
0,
0,
0,
0,
0,
0,
0,
0,
0,
0,
0,
0,
0,
0,
0,
0,
0,
0,
0,
0,
0,
0,
0,
0,
0,
0,
0,
0,
0,
0,
0,
0,
0,
0,
0,
0,
0,
0,
0,
0,
0,
0,
0,
0,
0,
0,
0,
0,
0,
0,
0,
0,
0,
0,
0,
0,
0,
0,
0,
0,
0,
0,
0,
0,
0,
0,
0,
0,
0,
0,
0,
0,
0,
0,
0,
0,
0,
0,
0,
0,
0,
0,
0,
0,
0,
0,
0,
0,
0,
0,
0,
0,
0,
0,
0,
0,
0,
0,
0,
0,
0,
0,
0,
0,
0,
0,
0,
#ENDOFDATA   :