File: N132962/Standards/15 keV/Mo std.msa
#FORMAT      : EMSA/MAS Spectral Data File
#VERSION     : 1.0
#TITLE       : Mo standard for 'N132962' detector
#NPOINTS     : 4096
#NCOLUMNS    : 1
#XUNITS      : eV
#YUNITS      : counts
#DATATYPE    : Y
#SIGNALTYPE  : EDS
#XLABEL      : Energy (eV)
#YLABEL      : Counts
#XPERCHAN -eV: 9.99778
#OFFSET   -eV: 1.69135
#CHOFFSET    : 0
#DATE        : 26-Sep-2025
#TIME        : 14:32:00
#OWNER       : Unknown
#ELEVANGLE   : 35
#BEAMKV   -kV: 15
#LIVETIME  -s: 2162.79
#REALTIME  -s: 2376.99
#PROBECUR -nA: 1.22024
##WORKING -mm: 15
##D2STDCMP   : Mo,(Mo:100.0000)
##SIMILAR    : 1.1
#SPECTRUM    :
235,
107233,
86208,
38065,
107685,
68746,
73481,
81768,
89031,
93053,
96932,
98794,
101176,
100624,
131603,
138818,
1276877,
1384853,
237721,
61387,
54567,
39079,
38048,
38624,
38564,
38819,
38223,
37765,
37567,
37036,
36320,
35669,
35632,
39621,
35990,
32917,
31322,
30640,
29858,
29644,
27968,
27184,
26832,
25855,
25179,
24879,
25653,
22958,
21776,
21367,
21267,
20358,
19549,
19131,
18094,
17572,
16971,
16249,
16060,
15613,
14735,
14246,
13860,
13371,
12577,
12444,
12122,
11710,
11137,
10838,
10394,
9967,
9555,
9128,
8732,
8245,
7960,
7643,
7109,
6810,
6530,
6291,
5783,
5684,
5261,
4844,
4737,
4360,
4096,
3877,
3640,
3254,
3057,
2801,
2638,
2318,
2152,
1917,
1715,
1572,
1297,
1081,
945,
809,
623,
436,
263,
98,
30,
37,
33,
27,
21,
29,
17,
25,
21,
11,
11,
10,
11,
18,
14,
20,
11,
4,
6,
9,
10,
12,
11,
6,
10,
9,
4,
7,
3,
2,
4,
6,
4,
4,
4,
5,
4,
5,
1,
3,
5,
4,
5,
2,
3,
1,
3,
3,
1,
1,
0,
2,
1,
2,
0,
2,
1,
1,
0,
4,
2,
0,
0,
2,
1,
0,
2,
2,
0,
0,
0,
0,
0,
0,
0,
0,
0,
0,
1,
0,
0,
0,
0,
1,
1,
0,
0,
0,
0,
0,
0,
1,
0,
0,
0,
0,
0,
0,
0,
0,
0,
0,
0,
0,
0,
0,
0,
0,
0,
0,
0,
0,
0,
0,
0,
0,
0,
0,
0,
0,
0,
0,
0,
0,
0,
0,
0,
0,
0,
0,
0,
0,
0,
0,
0,
0,
0,
0,
0,
0,
0,
0,
0,
0,
0,
0,
0,
0,
0,
0,
0,
0,
0,
0,
0,
0,
0,
0,
0,
0,
0,
0,
0,
0,
0,
0,
0,
0,
0,
0,
0,
0,
0,
0,
0,
0,
0,
0,
0,
0,
0,
0,
0,
0,
0,
0,
#ENDOFDATA   :