File: N132962/Standards/15 keV/Molybdenite std.msa
#FORMAT      : EMSA/MAS Spectral Data File
#VERSION     : 1.0
#TITLE       : 'Molybdenite' standard for 'N132962' detector
#NPOINTS     : 4096
#NCOLUMNS    : 1
#XUNITS      : eV
#YUNITS      : counts
#DATATYPE    : Y
#SIGNALTYPE  : EDS
#XLABEL      : Energy (eV)
#YLABEL      : Counts
#XPERCHAN -eV: 9.99778
#OFFSET   -eV: 1.69135
#CHOFFSET    : 0
#DATE        : 28-Sep-2025
#TIME        : 20:33:00
#OWNER       : Unknown
#ELEVANGLE   : 35
#BEAMKV   -kV: 15
#LIVETIME  -s: 1680.31
#REALTIME  -s: 1839.165
#PROBECUR -nA: 1.21285
##WORKING -mm: 15
##D2STDCMP   : 'Molybdenite',(S:40.0575),(Mo:59.9425)
##SIMILAR    : 1.4
#SPECTRUM    :
172,
26116,
131244,
22426,
96510,
48906,
52770,
57777,
61953,
64253,
66116,
66261,
66052,
64815,
76761,
81787,
1081127,
994900,
153799,
32377,
30334,
24014,
23588,
23484,
23421,
22923,
23072,
22378,
22383,
21712,
20978,
21134,
21060,
27545,
21814,
18672,
18134,
17161,
16892,
16601,
15907,
15434,
15069,
14731,
13825,
13647,
13674,
12665,
12081,
11860,
11453,
11031,
10580,
10361,
9918,
9427,
9415,
8916,
8688,
8279,
8042,
7757,
7341,
7126,
6854,
6490,
6206,
6104,
5987,
5777,
5382,
5122,
4754,
4824,
4639,
4174,
4164,
3889,
3722,
3557,
3341,
3103,
3071,
2805,
2656,
2491,
2306,
2216,
2039,
1905,
1768,
1597,
1482,
1363,
1199,
1119,
1030,
882,
807,
676,
609,
491,
444,
346,
240,
158,
96,
33,
21,
7,
5,
17,
8,
13,
14,
7,
8,
8,
10,
5,
7,
10,
4,
6,
3,
4,
2,
2,
8,
3,
1,
3,
0,
2,
1,
3,
3,
5,
4,
2,
3,
0,
1,
0,
1,
2,
0,
0,
2,
2,
0,
2,
0,
1,
0,
0,
0,
0,
0,
1,
0,
0,
1,
1,
2,
0,
1,
0,
0,
0,
0,
0,
0,
0,
0,
0,
0,
0,
0,
0,
0,
0,
0,
0,
0,
0,
0,
0,
0,
0,
0,
0,
0,
0,
0,
0,
0,
0,
0,
0,
0,
0,
0,
0,
0,
0,
0,
0,
0,
0,
0,
0,
0,
0,
0,
0,
0,
0,
0,
0,
0,
0,
0,
0,
0,
0,
0,
0,
0,
0,
0,
0,
0,
0,
0,
0,
0,
0,
0,
0,
0,
0,
0,
0,
0,
0,
0,
0,
0,
0,
0,
0,
0,
0,
0,
0,
0,
0,
0,
0,
0,
0,
0,
0,
0,
0,
0,
0,
0,
0,
0,
0,
0,
0,
0,
0,
0,
0,
0,
0,
0,
0,
0,
0,
0,
0,
0,
0,
0,
0,
0,
0,
0,
0,
#ENDOFDATA   :