File: N132962/Standards/15 keV/NaF std.msa
#FORMAT      : EMSA/MAS Spectral Data File
#VERSION     : 1.0
#TITLE       : NaF standard for 'N132962' detector
#NPOINTS     : 4096
#NCOLUMNS    : 1
#XUNITS      : eV
#YUNITS      : counts
#DATATYPE    : Y
#SIGNALTYPE  : EDS
#XLABEL      : Energy (eV)
#YLABEL      : Counts
#XPERCHAN -eV: 9.99778
#OFFSET   -eV: 1.69135
#CHOFFSET    : 0
#DATE        : 21-Mar-2025
#TIME        : 14:21:00
#OWNER       : Unknown
#ELEVANGLE   : 35
#BEAMKV   -kV: 15
#LIVETIME  -s: 958.809
#REALTIME  -s: 1032.42
#PROBECUR -nA: 1.03702
##WORKING -mm: 15
##D2STDCMP   : NaF,(F:45.2470),(Na:54.7530)
##SIMILAR    : 1.3
#SPECTRUM    :
105,
1391,
27028,
22250,
53604,
1213388,
14973,
295620,
68605,
8511,
10138,
9096,
15853,
9524,
8391,
10973,
7851,
7638,
7219,
7244,
6705,
6408,
6238,
5910,
5485,
5288,
5296,
4773,
4640,
4407,
4273,
4024,
3814,
3792,
3451,
3372,
3178,
3144,
2929,
2838,
2701,
2637,
2606,
2376,
2296,
2258,
2161,
1968,
1942,
1838,
1759,
1699,
1621,
1603,
1493,
1444,
1360,
1407,
1234,
1194,
1159,
1099,
1068,
987,
988,
903,
876,
871,
767,
794,
743,
650,
639,
659,
626,
557,
538,
506,
497,
430,
396,
396,
390,
349,
291,
283,
274,
245,
230,
199,
194,
181,
172,
150,
124,
114,
125,
80,
71,
72,
65,
54,
43,
31,
24,
16,
6,
4,
1,
1,
0,
0,
0,
1,
0,
0,
0,
0,
0,
0,
0,
0,
0,
0,
0,
0,
0,
0,
0,
0,
0,
1,
0,
0,
0,
0,
0,
1,
0,
0,
0,
0,
0,
0,
0,
0,
0,
0,
0,
0,
0,
0,
0,
0,
0,
0,
0,
0,
0,
0,
0,
0,
0,
0,
0,
0,
0,
0,
0,
0,
0,
0,
0,
0,
0,
0,
0,
0,
0,
0,
0,
0,
0,
0,
0,
0,
0,
0,
0,
0,
0,
0,
0,
0,
0,
0,
0,
0,
0,
0,
0,
0,
0,
0,
0,
0,
0,
0,
0,
0,
0,
0,
0,
0,
0,
0,
0,
0,
0,
0,
0,
0,
0,
0,
0,
0,
0,
0,
0,
0,
0,
0,
0,
0,
0,
0,
0,
0,
0,
0,
0,
0,
0,
0,
0,
0,
0,
0,
0,
0,
0,
0,
0,
0,
0,
0,
0,
0,
0,
0,
0,
0,
0,
0,
0,
0,
0,
0,
0,
0,
0,
0,
0,
0,
0,
0,
0,
0,
0,
0,
0,
0,
0,
0,
0,
0,
0,
0,
0,
0,
0,
0,
0,
0,
#ENDOFDATA   :