File: N132962/Standards/15 keV/Nb std.msa
#FORMAT      : EMSA/MAS Spectral Data File
#VERSION     : 1.0
#TITLE       : Nb standard for 'N132962' detector
#NPOINTS     : 4096
#NCOLUMNS    : 1
#XUNITS      : eV
#YUNITS      : counts
#DATATYPE    : Y
#SIGNALTYPE  : EDS
#XLABEL      : Energy (eV)
#YLABEL      : Counts
#XPERCHAN -eV: 9.99778
#OFFSET   -eV: 1.69135
#CHOFFSET    : 0
#DATE        : 26-Sep-2025
#TIME        : 13:49:00
#OWNER       : Unknown
#ELEVANGLE   : 35
#BEAMKV   -kV: 15
#LIVETIME  -s: 1681.3
#REALTIME  -s: 1849.17
#PROBECUR -nA: 1.2198
##WORKING -mm: 15
##D2STDCMP   : Nb,(Nb:100.0000)
##SIMILAR    : 1.3
#SPECTRUM    :
164,
94534,
58327,
82087,
65104,
50946,
59415,
67277,
71493,
75296,
78918,
80922,
82242,
96974,
124915,
722043,
1288052,
176204,
39038,
45719,
29987,
30354,
31135,
30927,
31171,
30774,
30810,
30551,
29787,
29550,
29180,
33146,
30551,
26913,
25939,
25237,
24505,
23641,
23428,
22628,
21983,
21218,
20977,
20126,
19532,
19308,
19576,
17880,
17299,
16657,
16226,
15792,
15011,
14908,
14313,
13622,
13148,
12772,
12595,
11848,
11661,
11316,
10670,
10338,
9900,
9663,
9374,
9035,
8498,
8065,
7928,
7726,
7383,
7019,
6760,
6474,
6070,
5845,
5548,
5298,
4998,
4783,
4568,
4237,
3905,
3874,
3535,
3389,
3081,
2950,
2734,
2569,
2356,
2137,
1940,
1799,
1650,
1473,
1280,
1170,
1010,
867,
723,
601,
449,
303,
187,
68,
21,
18,
26,
19,
20,
19,
13,
12,
12,
13,
8,
11,
11,
20,
10,
11,
7,
12,
2,
2,
7,
7,
7,
8,
8,
6,
6,
5,
2,
5,
1,
4,
1,
2,
3,
2,
4,
4,
1,
4,
2,
1,
3,
4,
2,
2,
3,
0,
0,
2,
1,
0,
1,
0,
0,
0,
0,
0,
2,
1,
1,
0,
0,
0,
0,
0,
0,
0,
2,
0,
0,
0,
1,
0,
0,
0,
0,
0,
0,
0,
0,
0,
0,
0,
0,
0,
0,
0,
0,
0,
0,
0,
0,
0,
0,
0,
0,
0,
0,
0,
0,
0,
0,
0,
0,
0,
0,
0,
0,
0,
0,
0,
0,
0,
0,
0,
0,
0,
0,
0,
0,
0,
0,
0,
0,
0,
0,
0,
0,
0,
0,
0,
0,
0,
0,
0,
0,
0,
0,
0,
0,
0,
0,
0,
0,
0,
0,
0,
0,
0,
0,
0,
0,
0,
0,
0,
0,
0,
0,
0,
0,
0,
0,
0,
0,
0,
0,
0,
0,
0,
0,
0,
0,
0,
0,
0,
0,
0,
0,
0,
0,
0,
0,
0,
0,
0,
#ENDOFDATA   :