File: N132962/Standards/15 keV/NdF3 std.msa
#FORMAT      : EMSA/MAS Spectral Data File
#VERSION     : 1.0
#TITLE       : NdF3 standard for 'N132962' detector
#NPOINTS     : 4096
#NCOLUMNS    : 1
#XUNITS      : eV
#YUNITS      : counts
#DATATYPE    : Y
#SIGNALTYPE  : EDS
#XLABEL      : Energy (eV)
#YLABEL      : Counts
#XPERCHAN -eV: 9.99778
#OFFSET   -eV: 1.69135
#CHOFFSET    : 0
#DATE        : 26-Sep-2025
#TIME        : 16:50:00
#OWNER       : Unknown
#ELEVANGLE   : 35
#BEAMKV   -kV: 15
#LIVETIME  -s: 1196.88
#REALTIME  -s: 1286.98
#PROBECUR -nA: 1.21578
##WORKING -mm: 15
##D2STDCMP   : NdF3,(F:28.3224),(Nd:71.6776)
##SIMILAR    : 4.3
#SPECTRUM    :
113,
3659,
85740,
53000,
83382,
839702,
42884,
154913,
31095,
37545,
28201,
30341,
29221,
29318,
26265,
26367,
26863,
26677,
26396,
26069,
25197,
24943,
24097,
23516,
22870,
23328,
21677,
20942,
20586,
19837,
18906,
18714,
18293,
26909,
17888,
16677,
18392,
187472,
74667,
16249,
25458,
123648,
30301,
33205,
32547,
12037,
14138,
25655,
12245,
14906,
10495,
9702,
8653,
8581,
8058,
7731,
7589,
7303,
7297,
6935,
6742,
6605,
6214,
6167,
5969,
5561,
5396,
5288,
5279,
5123,
4813,
4618,
4308,
4117,
4127,
3920,
3644,
3480,
3492,
3211,
3038,
2930,
2800,
2523,
2464,
2317,
2158,
1983,
1974,
1748,
1616,
1532,
1432,
1289,
1161,
1122,
944,
895,
736,
695,
622,
495,
446,
329,
227,
162,
80,
27,
21,
11,
9,
11,
7,
15,
12,
11,
5,
13,
7,
7,
9,
22,
7,
6,
12,
3,
7,
4,
4,
6,
3,
4,
4,
3,
6,
4,
7,
2,
2,
3,
1,
0,
4,
2,
2,
0,
2,
0,
2,
3,
1,
4,
1,
1,
0,
0,
0,
0,
0,
2,
1,
0,
0,
1,
0,
0,
0,
0,
0,
1,
0,
1,
0,
0,
0,
0,
0,
0,
0,
0,
1,
0,
0,
0,
1,
0,
0,
0,
0,
0,
0,
0,
0,
0,
0,
0,
0,
0,
0,
0,
0,
0,
0,
0,
0,
0,
0,
0,
0,
0,
0,
0,
0,
0,
0,
0,
0,
0,
0,
0,
0,
0,
0,
0,
0,
0,
0,
0,
0,
0,
0,
0,
0,
0,
0,
0,
0,
0,
0,
0,
0,
0,
0,
0,
0,
0,
0,
0,
0,
0,
0,
0,
0,
0,
0,
0,
0,
0,
0,
0,
0,
0,
0,
0,
0,
0,
0,
0,
0,
0,
0,
0,
0,
0,
0,
0,
0,
0,
0,
0,
0,
0,
0,
0,
0,
0,
0,
0,
0,
0,
0,
0,
0,
0,
#ENDOFDATA   :