File: N132962/Standards/15 keV/NdP5O14 std.msa
#FORMAT      : EMSA/MAS Spectral Data File
#VERSION     : 1.0
#TITLE       : NdP5O14 standard for 'N132962' detector
#NPOINTS     : 4096
#NCOLUMNS    : 1
#XUNITS      : eV
#YUNITS      : counts
#DATATYPE    : Y
#SIGNALTYPE  : EDS
#XLABEL      : Energy (eV)
#YLABEL      : Counts
#XPERCHAN -eV: 9.99778
#OFFSET   -eV: 1.69135
#CHOFFSET    : 0
#DATE        : 17-Mar-2025
#TIME        : 16:49:00
#OWNER       : Unknown
#ELEVANGLE   : 35
#BEAMKV   -kV: 15
#LIVETIME  -s: 1438.26
#REALTIME  -s: 1517.13
#PROBECUR -nA: 1.02671
##WORKING -mm: 15
##D2STDCMP   : NdP5O14,(O:42.8192),(P:29.6061),(Nd:27.5746)
##SIMILAR    : 1.2
#SPECTRUM    :
144,
2104,
93661,
53104,
404685,
37801,
27579,
89642,
27301,
31557,
25853,
26681,
27714,
29995,
378858,
114253,
18554,
16591,
18691,
16303,
15549,
15275,
14609,
14302,
13791,
13820,
12715,
12311,
11967,
12074,
10905,
10643,
10219,
13249,
9724,
9337,
9799,
66781,
28701,
8178,
11485,
45044,
12799,
13930,
13433,
6336,
6503,
11166,
6186,
7309,
5472,
5268,
4793,
4499,
4427,
4277,
4146,
3823,
3812,
3643,
3505,
3376,
3276,
3108,
3023,
2898,
2714,
2766,
2529,
2500,
2410,
2289,
2175,
2088,
1902,
1814,
1728,
1671,
1569,
1451,
1431,
1340,
1251,
1179,
1088,
967,
956,
906,
835,
778,
708,
635,
632,
563,
515,
471,
379,
333,
343,
277,
216,
193,
174,
114,
104,
50,
34,
4,
3,
0,
1,
5,
2,
0,
0,
2,
1,
1,
1,
0,
1,
2,
2,
1,
2,
0,
0,
2,
2,
3,
1,
1,
1,
1,
0,
1,
1,
0,
1,
1,
1,
0,
0,
0,
0,
0,
0,
0,
0,
0,
1,
1,
0,
0,
0,
0,
0,
0,
0,
1,
0,
0,
0,
0,
0,
0,
0,
0,
0,
0,
0,
1,
0,
0,
0,
0,
0,
0,
0,
0,
0,
0,
0,
0,
0,
0,
0,
0,
0,
0,
0,
0,
0,
0,
0,
0,
0,
0,
0,
0,
0,
0,
0,
0,
0,
0,
0,
0,
0,
0,
0,
0,
0,
0,
0,
0,
0,
0,
0,
0,
0,
0,
0,
0,
0,
0,
0,
0,
0,
0,
0,
0,
0,
0,
0,
0,
0,
0,
0,
0,
0,
0,
0,
0,
0,
0,
0,
0,
0,
0,
0,
0,
0,
0,
0,
0,
0,
0,
0,
0,
0,
0,
0,
0,
0,
0,
0,
0,
0,
0,
0,
0,
0,
0,
0,
0,
0,
0,
0,
0,
0,
0,
0,
0,
0,
0,
0,
0,
0,
0,
0,
0,
0,
0,
#ENDOFDATA   :