File: N132962/Standards/15 keV/Ni std.msa
#FORMAT      : EMSA/MAS Spectral Data File
#VERSION     : 1.0
#TITLE       : Ni standard for 'N132962' detector
#NPOINTS     : 4096
#NCOLUMNS    : 1
#XUNITS      : eV
#YUNITS      : counts
#DATATYPE    : Y
#SIGNALTYPE  : EDS
#XLABEL      : Energy (eV)
#YLABEL      : Counts
#XPERCHAN -eV: 9.99778
#OFFSET   -eV: 1.69135
#CHOFFSET    : 0
#DATE        : 26-Sep-2025
#TIME        : 22:59:00
#OWNER       : Unknown
#ELEVANGLE   : 35
#BEAMKV   -kV: 15
#LIVETIME  -s: 2161.41
#REALTIME  -s: 2328.68
#PROBECUR -nA: 1.21516
##WORKING -mm: 15
##D2STDCMP   : Ni,(Ni:100.0000)
##SIMILAR    : 1.1
#SPECTRUM    :
207,
3586,
74782,
72724,
113553,
420933,
2742918,
42291,
35060,
40871,
45554,
50186,
57880,
54531,
48209,
49181,
48715,
47798,
46476,
45759,
44435,
42883,
41392,
40177,
38442,
37185,
36251,
34667,
33529,
32462,
30910,
30253,
28774,
27789,
26668,
25927,
24947,
23812,
23525,
22896,
21404,
22249,
22983,
19924,
18607,
18920,
20299,
16759,
16076,
15828,
15894,
15655,
22933,
473447,
225690,
13721,
12612,
12947,
21828,
93208,
18354,
8983,
8485,
8496,
8239,
8178,
7613,
7440,
7268,
6915,
6709,
6478,
6155,
5967,
5533,
5285,
5137,
4888,
4635,
4309,
4183,
3860,
3801,
3453,
3273,
3114,
2940,
2785,
2556,
2298,
2219,
2136,
1800,
1739,
1601,
1489,
1295,
1143,
917,
879,
800,
678,
568,
451,
346,
269,
260,
272,
58,
27,
20,
40,
73,
50,
18,
11,
15,
12,
8,
16,
8,
14,
17,
17,
15,
14,
13,
15,
10,
12,
13,
8,
9,
10,
4,
10,
8,
5,
7,
4,
7,
11,
6,
3,
3,
7,
2,
5,
1,
3,
1,
4,
3,
3,
2,
0,
2,
2,
1,
1,
0,
0,
0,
0,
0,
0,
1,
0,
0,
0,
0,
0,
0,
0,
0,
0,
0,
0,
0,
0,
0,
0,
0,
0,
0,
0,
0,
0,
0,
0,
0,
0,
0,
0,
0,
0,
0,
0,
0,
0,
0,
0,
0,
0,
0,
0,
0,
0,
0,
0,
0,
0,
0,
0,
0,
0,
0,
0,
0,
0,
0,
0,
0,
0,
0,
0,
0,
0,
0,
0,
0,
0,
0,
0,
0,
0,
0,
0,
0,
0,
0,
0,
0,
0,
0,
0,
0,
0,
0,
0,
0,
0,
0,
0,
0,
0,
0,
0,
0,
0,
0,
0,
0,
0,
0,
0,
0,
0,
0,
0,
0,
0,
0,
0,
0,
0,
0,
0,
0,
0,
0,
0,
0,
0,
0,
0,
0,
0,
0,
0,
0,
0,
0,
0,
#ENDOFDATA   :