File: N132962/Standards/15 keV/NIST K227 std.msa
#FORMAT      : EMSA/MAS Spectral Data File
#VERSION     : 1.0
#TITLE       : 'NIST K227' standard for 'N132962' detector
#NPOINTS     : 4096
#NCOLUMNS    : 1
#XUNITS      : eV
#YUNITS      : counts
#DATATYPE    : Y
#SIGNALTYPE  : EDS
#XLABEL      : Energy (eV)
#YLABEL      : Counts
#XPERCHAN -eV: 9.99778
#OFFSET   -eV: 1.69135
#CHOFFSET    : 0
#DATE        : 26-Sep-2025
#TIME        : 18:47:00
#OWNER       : Unknown
#ELEVANGLE   : 35
#BEAMKV   -kV: 15
#LIVETIME  -s: 2155.28
#REALTIME  -s: 2340.224
#PROBECUR -nA: 1.21628
##WORKING -mm: 15
##D2STDCMP   : 'NIST K227',(O:16.3855),(Si:9.3493),(Pb:74.2652)
##SIMILAR    : 1.0
#SPECTRUM    :
204,
7234,
128016,
72125,
253114,
85001,
73545,
77406,
82107,
87175,
91189,
95139,
303248,
268831,
77018,
77801,
156426,
1190560,
198101,
101897,
44964,
49146,
60208,
45332,
41843,
42520,
40643,
40882,
38774,
39179,
38746,
37212,
36609,
36178,
36716,
34447,
33254,
32505,
32293,
32443,
30124,
29390,
28886,
28056,
26886,
27547,
29822,
24981,
24149,
23658,
23683,
22546,
21226,
21489,
20375,
19736,
19000,
18429,
17952,
17441,
16708,
16245,
15567,
15367,
14628,
14547,
14421,
13100,
12833,
12099,
11979,
11401,
11032,
10355,
11450,
21979,
14839,
8989,
8287,
8114,
7589,
7233,
6824,
6384,
6173,
5751,
5528,
5374,
4879,
4986,
6474,
4412,
3766,
3511,
2917,
2717,
2531,
2146,
2041,
1776,
1585,
1369,
1144,
920,
716,
492,
284,
100,
25,
27,
30,
42,
22,
23,
29,
22,
27,
12,
18,
16,
23,
17,
15,
20,
14,
13,
12,
15,
7,
11,
10,
7,
10,
12,
8,
15,
6,
5,
6,
6,
3,
8,
4,
3,
12,
2,
7,
2,
2,
7,
3,
4,
2,
2,
3,
5,
2,
4,
2,
2,
1,
3,
0,
1,
2,
0,
2,
0,
1,
0,
0,
1,
0,
0,
2,
4,
0,
0,
0,
1,
0,
0,
2,
0,
0,
0,
0,
0,
0,
0,
0,
0,
0,
0,
0,
1,
0,
0,
0,
0,
0,
0,
0,
0,
0,
0,
0,
0,
0,
0,
0,
0,
0,
0,
0,
0,
0,
0,
0,
0,
0,
0,
0,
0,
0,
0,
0,
0,
0,
0,
0,
0,
0,
0,
0,
0,
0,
0,
0,
0,
0,
0,
0,
0,
0,
0,
0,
0,
0,
0,
0,
0,
0,
0,
0,
0,
0,
0,
0,
0,
0,
0,
0,
0,
0,
0,
0,
0,
0,
0,
0,
0,
0,
0,
0,
0,
0,
0,
0,
0,
0,
0,
0,
0,
0,
0,
0,
0,
0,
0,
0,
0,
0,
0,
#ENDOFDATA   :