File: N132962/Standards/15 keV/PbO std.msa
#FORMAT      : EMSA/MAS Spectral Data File
#VERSION     : 1.0
#TITLE       : PbO standard for 'N132962' detector
#NPOINTS     : 4096
#NCOLUMNS    : 1
#XUNITS      : eV
#YUNITS      : counts
#DATATYPE    : Y
#SIGNALTYPE  : EDS
#XLABEL      : Energy (eV)
#YLABEL      : Counts
#XPERCHAN -eV: 9.99778
#OFFSET   -eV: 1.69135
#CHOFFSET    : 0
#DATE        : 25-Sep-2025
#TIME        : 17:58:00
#OWNER       : Unknown
#ELEVANGLE   : 35
#BEAMKV   -kV: 15
#LIVETIME  -s: 1446.4
#REALTIME  -s: 1591.31
#PROBECUR -nA: 1.20838
##WORKING -mm: 15
##D2STDCMP   : PbO,(O:7.1680),(Pb:92.8320)
##SIMILAR    : 17.9
#SPECTRUM    :
150,
10264,
149472,
51635,
133725,
92869,
56711,
60589,
62689,
82073,
71363,
71276,
74188,
149587,
67358,
68234,
147722,
1107430,
182991,
97651,
37632,
39923,
49397,
36674,
33978,
34664,
32670,
33488,
31856,
31542,
31477,
31251,
32939,
30654,
31856,
30216,
28828,
28091,
27383,
27025,
26381,
25775,
25233,
24413,
23471,
23261,
23081,
22066,
21623,
20660,
20303,
19629,
19145,
19004,
18248,
17260,
16972,
16647,
16203,
15368,
14960,
14423,
14231,
13651,
13168,
13109,
12456,
11681,
11482,
10977,
10423,
9913,
9836,
9370,
10320,
19859,
13165,
7857,
7531,
7157,
6710,
6405,
5975,
5671,
5395,
5150,
4881,
4596,
4257,
4374,
5724,
3949,
3289,
3038,
2530,
2358,
2140,
1896,
1663,
1452,
1282,
1076,
961,
688,
589,
448,
241,
94,
36,
27,
37,
31,
33,
21,
21,
26,
28,
18,
21,
12,
20,
18,
15,
23,
16,
15,
23,
15,
14,
16,
8,
7,
12,
7,
14,
8,
11,
6,
6,
8,
10,
6,
1,
2,
9,
6,
3,
8,
4,
4,
1,
3,
2,
5,
5,
5,
4,
3,
2,
4,
5,
4,
0,
3,
1,
2,
3,
1,
2,
1,
0,
0,
0,
1,
3,
0,
2,
1,
0,
1,
0,
1,
0,
2,
0,
0,
0,
0,
0,
0,
0,
0,
0,
0,
0,
0,
0,
0,
0,
0,
1,
1,
0,
0,
0,
0,
0,
0,
0,
0,
0,
0,
0,
0,
0,
0,
0,
0,
0,
0,
0,
0,
0,
0,
0,
0,
0,
0,
0,
0,
0,
0,
0,
0,
0,
0,
0,
0,
0,
0,
0,
0,
0,
0,
0,
0,
0,
0,
0,
0,
0,
0,
0,
0,
0,
0,
0,
0,
0,
0,
0,
0,
0,
0,
0,
0,
0,
0,
0,
0,
0,
0,
0,
0,
0,
0,
0,
0,
0,
0,
0,
0,
0,
0,
0,
0,
0,
0,
0,
0,
0,
0,
0,
0,
#ENDOFDATA   :