File: N132962/Standards/15 keV/Pd std.msa
#FORMAT      : EMSA/MAS Spectral Data File
#VERSION     : 1.0
#TITLE       : Pd standard for 'N132962' detector
#NPOINTS     : 4096
#NCOLUMNS    : 1
#XUNITS      : eV
#YUNITS      : counts
#DATATYPE    : Y
#SIGNALTYPE  : EDS
#XLABEL      : Energy (eV)
#YLABEL      : Counts
#XPERCHAN -eV: 9.99778
#OFFSET   -eV: 1.69135
#CHOFFSET    : 0
#DATE        : 26-Sep-2025
#TIME        : 14:11:00
#OWNER       : Unknown
#ELEVANGLE   : 35
#BEAMKV   -kV: 15
#LIVETIME  -s: 1921.74
#REALTIME  -s: 2109.21
#PROBECUR -nA: 1.21991
##WORKING -mm: 15
##D2STDCMP   : Pd,(Pd:100.0000)
##SIMILAR    : 1.1
#SPECTRUM    :
196,
17517,
624159,
40447,
45739,
46240,
53887,
61925,
92553,
84430,
80066,
81818,
84576,
84196,
72627,
73916,
79877,
71655,
137900,
103390,
1304193,
572160,
319536,
141429,
76499,
44072,
36695,
32576,
32929,
32754,
32357,
31794,
31435,
30955,
30779,
29873,
29333,
28647,
28041,
27778,
27708,
27959,
27352,
25623,
24492,
23935,
24182,
21902,
21248,
20641,
20026,
19538,
18960,
18775,
18139,
17302,
16804,
16403,
15603,
15210,
14553,
14178,
13738,
13033,
12885,
12570,
11789,
11268,
10929,
10612,
10263,
10186,
9743,
9109,
8804,
8229,
7847,
7523,
7129,
6854,
6649,
6215,
6026,
5647,
5292,
4954,
4591,
4399,
4028,
3819,
3713,
3309,
3094,
2833,
2686,
2375,
2230,
1925,
1782,
1543,
1433,
1214,
1020,
844,
634,
489,
249,
106,
43,
30,
29,
29,
33,
30,
31,
21,
12,
31,
18,
17,
14,
18,
24,
23,
16,
17,
10,
18,
17,
8,
9,
9,
12,
10,
8,
9,
9,
4,
4,
3,
3,
1,
0,
3,
5,
6,
5,
3,
1,
2,
5,
2,
2,
1,
1,
3,
1,
4,
1,
0,
0,
2,
1,
0,
1,
1,
0,
2,
0,
1,
0,
0,
0,
1,
0,
1,
0,
1,
2,
1,
1,
0,
0,
1,
0,
0,
0,
0,
0,
0,
0,
0,
0,
0,
0,
0,
0,
0,
0,
0,
0,
0,
0,
0,
0,
0,
0,
0,
0,
0,
0,
0,
0,
0,
0,
0,
0,
0,
0,
0,
0,
0,
0,
0,
0,
0,
0,
0,
0,
0,
0,
0,
0,
0,
0,
0,
0,
0,
0,
0,
0,
0,
0,
0,
0,
0,
0,
0,
0,
0,
0,
0,
0,
0,
0,
0,
0,
0,
0,
0,
0,
0,
0,
0,
0,
0,
0,
0,
0,
0,
0,
0,
0,
0,
0,
0,
0,
0,
0,
0,
0,
0,
0,
0,
0,
0,
0,
0,
0,
0,
0,
0,
0,
0,
#ENDOFDATA   :