File: N132962/Standards/15 keV/PrF3 std.msa
#FORMAT      : EMSA/MAS Spectral Data File
#VERSION     : 1.0
#TITLE       : PrF3 standard for 'N132962' detector
#NPOINTS     : 4096
#NCOLUMNS    : 1
#XUNITS      : eV
#YUNITS      : counts
#DATATYPE    : Y
#SIGNALTYPE  : EDS
#XLABEL      : Energy (eV)
#YLABEL      : Counts
#XPERCHAN -eV: 9.99778
#OFFSET   -eV: 1.69135
#CHOFFSET    : 0
#DATE        : 26-Sep-2025
#TIME        : 15:47:00
#OWNER       : Unknown
#ELEVANGLE   : 35
#BEAMKV   -kV: 15
#LIVETIME  -s: 1196.72
#REALTIME  -s: 1289.93
#PROBECUR -nA: 1.22066
##WORKING -mm: 15
##D2STDCMP   : PrF3,(F:28.7996),(Pr:71.2004)
##SIMILAR    : 3.3
#SPECTRUM    :
123,
4059,
108854,
54182,
89501,
918414,
45359,
69438,
45030,
33418,
27751,
28327,
31896,
31911,
27388,
27967,
28722,
27717,
27581,
27113,
26169,
27375,
25363,
25623,
24468,
22879,
22274,
22149,
20747,
20142,
19433,
19688,
28466,
18230,
17928,
33976,
288651,
22634,
17376,
121833,
51608,
23388,
53150,
12780,
12716,
27837,
14135,
16344,
11150,
10258,
9207,
8864,
8782,
8576,
8121,
8075,
7708,
7364,
7281,
7036,
6827,
6567,
6447,
6055,
5999,
5584,
5574,
5255,
5300,
4881,
4876,
4547,
4669,
4231,
4095,
4044,
3828,
3542,
3262,
3259,
3156,
2871,
2784,
2639,
2486,
2279,
2169,
2052,
1902,
1763,
1657,
1526,
1334,
1316,
1227,
1077,
1023,
865,
809,
687,
586,
495,
433,
339,
243,
183,
106,
27,
16,
10,
16,
15,
10,
8,
12,
4,
5,
7,
7,
6,
5,
17,
11,
4,
7,
9,
3,
7,
8,
9,
7,
2,
6,
3,
2,
2,
6,
5,
5,
3,
2,
5,
0,
2,
2,
2,
0,
1,
0,
1,
0,
0,
0,
1,
1,
1,
1,
0,
0,
1,
0,
0,
0,
1,
0,
0,
0,
0,
0,
0,
0,
0,
0,
0,
0,
0,
0,
0,
0,
0,
0,
0,
0,
0,
0,
0,
0,
0,
0,
1,
0,
0,
0,
0,
0,
0,
0,
0,
0,
0,
0,
0,
0,
0,
0,
0,
0,
0,
0,
0,
0,
0,
0,
0,
0,
0,
0,
0,
0,
0,
0,
0,
0,
0,
0,
0,
0,
0,
0,
0,
0,
0,
0,
0,
0,
0,
0,
0,
0,
0,
0,
0,
0,
0,
0,
0,
0,
0,
0,
0,
0,
0,
0,
0,
0,
0,
0,
0,
0,
0,
0,
0,
0,
0,
0,
0,
0,
0,
0,
0,
0,
0,
0,
0,
0,
0,
0,
0,
0,
0,
0,
0,
0,
0,
0,
0,
0,
0,
0,
0,
0,
0,
0,
0,
#ENDOFDATA   :