File: N132962/Standards/15 keV/PrP5O14 std.msa
#FORMAT      : EMSA/MAS Spectral Data File
#VERSION     : 1.0
#TITLE       : PrP5O14 standard for 'N132962' detector
#NPOINTS     : 4096
#NCOLUMNS    : 1
#XUNITS      : eV
#YUNITS      : counts
#DATATYPE    : Y
#SIGNALTYPE  : EDS
#XLABEL      : Energy (eV)
#YLABEL      : Counts
#XPERCHAN -eV: 9.99778
#OFFSET   -eV: 1.69135
#CHOFFSET    : 0
#DATE        : 17-Mar-2025
#TIME        : 16:57:00
#OWNER       : Unknown
#ELEVANGLE   : 35
#BEAMKV   -kV: 15
#LIVETIME  -s: 1198.62
#REALTIME  -s: 1264.92
#PROBECUR -nA: 1.02671
##WORKING -mm: 15
##D2STDCMP   : PrP5O14,(O:43.0939),(P:29.7961),(Pr:27.1100)
##SIMILAR    : 5.4
#SPECTRUM    :
113,
1717,
76681,
45246,
342192,
42846,
23729,
39343,
28622,
24107,
21641,
22212,
23500,
25093,
321313,
96011,
15789,
13912,
15608,
13495,
13011,
12772,
12237,
11959,
11491,
10929,
10836,
10170,
10001,
9930,
9202,
9017,
11325,
8218,
8095,
12544,
84450,
9119,
7368,
36348,
17015,
8479,
17426,
5933,
5540,
9837,
5885,
6624,
4953,
4667,
4358,
4071,
3852,
3887,
3633,
3633,
3328,
3319,
3189,
3038,
2895,
2862,
2644,
2631,
2559,
2362,
2310,
2204,
2099,
2048,
1943,
1876,
1777,
1750,
1662,
1583,
1512,
1459,
1269,
1250,
1159,
1132,
1051,
989,
931,
832,
809,
819,
711,
629,
571,
541,
512,
432,
395,
348,
316,
305,
260,
212,
184,
146,
129,
108,
84,
48,
31,
9,
2,
3,
0,
2,
2,
2,
2,
2,
1,
3,
1,
3,
1,
0,
1,
1,
2,
2,
2,
1,
1,
1,
0,
0,
0,
0,
0,
0,
1,
0,
0,
0,
0,
1,
0,
0,
0,
0,
0,
1,
0,
1,
0,
0,
0,
0,
0,
0,
0,
0,
0,
0,
0,
1,
0,
0,
0,
0,
0,
0,
0,
0,
0,
0,
0,
0,
0,
0,
0,
0,
0,
0,
0,
0,
0,
0,
0,
0,
0,
0,
0,
0,
0,
0,
0,
0,
0,
0,
0,
0,
0,
0,
0,
0,
0,
0,
0,
0,
0,
0,
0,
0,
0,
0,
0,
0,
0,
0,
0,
0,
0,
0,
0,
0,
0,
0,
0,
0,
0,
0,
0,
0,
0,
0,
0,
0,
0,
0,
0,
0,
0,
0,
0,
0,
0,
0,
0,
0,
0,
0,
0,
0,
0,
0,
0,
0,
0,
0,
0,
0,
0,
0,
0,
0,
0,
0,
0,
0,
0,
0,
0,
0,
0,
0,
0,
0,
0,
0,
0,
0,
0,
0,
0,
0,
0,
0,
0,
0,
0,
0,
0,
0,
0,
0,
0,
0,
#ENDOFDATA   :