File: N132962/Standards/15 keV/Pt std.msa
#FORMAT      : EMSA/MAS Spectral Data File
#VERSION     : 1.0
#TITLE       : Pt standard for 'N132962' detector
#NPOINTS     : 4096
#NCOLUMNS    : 1
#XUNITS      : eV
#YUNITS      : counts
#DATATYPE    : Y
#SIGNALTYPE  : EDS
#XLABEL      : Energy (eV)
#YLABEL      : Counts
#XPERCHAN -eV: 9.99778
#OFFSET   -eV: 1.69135
#CHOFFSET    : 0
#DATE        : 27-Sep-2025
#TIME        : 20:38:00
#OWNER       : Unknown
#ELEVANGLE   : 35
#BEAMKV   -kV: 15
#LIVETIME  -s: 2159.64
#REALTIME  -s: 2402
#PROBECUR -nA: 1.21175
##WORKING -mm: 15
##D2STDCMP   : Pt,(Pt:100.0000)
##SIMILAR    : 1.1
#SPECTRUM    :
239,
12166,
183249,
75738,
75576,
86412,
104194,
119501,
117668,
120567,
125404,
184285,
158349,
136574,
408173,
2137687,
100158,
97539,
61600,
77019,
60161,
56535,
55890,
57232,
54791,
54745,
55652,
54522,
54615,
56758,
57335,
52534,
51728,
50420,
49419,
49075,
47377,
46772,
45864,
44920,
43669,
43031,
41934,
40940,
39567,
38945,
38879,
36522,
35949,
34759,
34075,
33080,
32087,
31576,
30653,
29576,
28527,
27860,
27775,
30365,
25979,
24579,
24011,
23115,
22416,
21459,
24717,
83294,
56847,
19662,
18348,
17934,
16666,
16257,
15577,
14850,
14555,
14896,
15878,
24368,
26625,
17378,
11877,
10658,
9311,
8941,
8496,
7910,
7597,
7110,
6878,
6356,
7393,
6351,
5316,
4864,
4285,
3909,
3454,
3162,
2820,
2435,
2022,
1769,
1370,
1049,
678,
251,
101,
72,
61,
70,
60,
68,
56,
55,
63,
47,
43,
34,
42,
53,
40,
41,
41,
41,
33,
31,
27,
30,
28,
31,
24,
24,
31,
24,
35,
26,
23,
16,
17,
16,
20,
12,
12,
12,
8,
14,
18,
5,
18,
16,
7,
7,
11,
6,
5,
6,
11,
5,
3,
6,
3,
5,
3,
3,
3,
6,
1,
2,
1,
0,
1,
2,
4,
1,
1,
3,
0,
2,
1,
1,
2,
0,
1,
1,
0,
0,
1,
0,
1,
0,
1,
0,
0,
1,
0,
0,
0,
1,
0,
0,
0,
0,
0,
0,
0,
0,
0,
0,
0,
0,
0,
0,
0,
0,
0,
0,
0,
0,
0,
0,
0,
0,
0,
0,
0,
0,
0,
0,
0,
0,
0,
0,
0,
0,
0,
0,
0,
0,
0,
0,
0,
0,
0,
0,
0,
0,
0,
0,
0,
0,
0,
0,
0,
0,
0,
0,
0,
0,
0,
0,
0,
0,
0,
0,
0,
0,
0,
0,
0,
0,
0,
0,
0,
0,
0,
0,
0,
0,
0,
0,
0,
0,
0,
0,
0,
0,
0,
0,
0,
0,
0,
0,
#ENDOFDATA   :