File: N132962/Standards/15 keV/RbI std.msa
#FORMAT      : EMSA/MAS Spectral Data File
#VERSION     : 1.0
#TITLE       : RbI standard for 'N132962' detector
#NPOINTS     : 4096
#NCOLUMNS    : 1
#XUNITS      : eV
#YUNITS      : counts
#DATATYPE    : Y
#SIGNALTYPE  : EDS
#XLABEL      : Energy (eV)
#YLABEL      : Counts
#XPERCHAN -eV: 9.99778
#OFFSET   -eV: 1.69135
#CHOFFSET    : 0
#DATE        : 29-Sep-2025
#TIME        : 10:41:00
#OWNER       : Unknown
#ELEVANGLE   : 35
#BEAMKV   -kV: 15
#LIVETIME  -s: 2160.8
#REALTIME  -s: 2342.47
#PROBECUR -nA: 1.22416
##WORKING -mm: 15
##D2STDCMP   : RbI,(Rb:40.2443),(I:59.7557)
##SIMILAR    : 5.6
#SPECTRUM    :
216,
7452,
143737,
86261,
110944,
63075,
90081,
73403,
67533,
74796,
85803,
123083,
1286707,
236184,
56687,
58135,
59562,
56797,
57876,
56207,
55718,
53877,
52500,
51631,
52647,
74923,
49253,
64813,
683687,
78983,
323160,
126637,
125263,
48142,
61940,
39501,
48283,
33478,
29189,
28781,
28812,
27856,
27029,
26445,
25464,
25039,
24779,
23275,
22473,
21881,
21388,
20784,
20282,
19929,
19009,
18366,
17799,
17678,
17057,
16243,
15616,
15421,
14940,
14119,
13574,
12914,
12597,
12144,
11861,
11382,
10937,
10588,
10045,
9634,
9205,
8889,
8501,
8165,
7731,
7360,
7046,
6630,
6265,
5779,
5704,
5269,
4902,
4669,
4383,
3889,
3748,
3522,
3269,
2995,
2887,
2529,
2306,
2011,
1872,
1589,
1435,
1160,
961,
854,
580,
449,
221,
88,
41,
40,
43,
33,
29,
24,
30,
20,
26,
26,
20,
21,
13,
27,
21,
21,
18,
9,
11,
22,
20,
14,
13,
15,
7,
14,
6,
9,
7,
4,
7,
2,
10,
5,
8,
5,
5,
1,
2,
4,
4,
2,
2,
2,
0,
1,
6,
4,
2,
2,
4,
0,
1,
1,
2,
1,
1,
1,
0,
2,
0,
2,
0,
0,
0,
2,
0,
0,
1,
1,
1,
0,
0,
0,
0,
0,
0,
0,
0,
0,
0,
0,
0,
0,
0,
0,
0,
0,
0,
0,
0,
0,
0,
0,
0,
0,
0,
0,
0,
0,
0,
0,
0,
0,
0,
0,
0,
0,
0,
0,
0,
0,
0,
0,
0,
0,
0,
0,
0,
0,
0,
0,
0,
0,
0,
0,
0,
0,
0,
0,
0,
0,
0,
0,
0,
0,
0,
0,
0,
0,
0,
0,
0,
0,
0,
0,
0,
0,
0,
0,
0,
0,
0,
0,
0,
0,
0,
0,
0,
0,
0,
0,
0,
0,
0,
0,
0,
0,
0,
0,
0,
0,
0,
0,
0,
0,
0,
0,
0,
0,
0,
0,
0,
0,
0,
0,
#ENDOFDATA   :