File: N132962/Standards/15 keV/Re std.msa
#FORMAT      : EMSA/MAS Spectral Data File
#VERSION     : 1.0
#TITLE       : Re standard for 'N132962' detector
#NPOINTS     : 4096
#NCOLUMNS    : 1
#XUNITS      : eV
#YUNITS      : counts
#DATATYPE    : Y
#SIGNALTYPE  : EDS
#XLABEL      : Energy (eV)
#YLABEL      : Counts
#XPERCHAN -eV: 9.99778
#OFFSET   -eV: 1.69135
#CHOFFSET    : 0
#DATE        : 27-Sep-2025
#TIME        : 20:58:00
#OWNER       : Unknown
#ELEVANGLE   : 35
#BEAMKV   -kV: 15
#LIVETIME  -s: 1440.12
#REALTIME  -s: 1603.98
#PROBECUR -nA: 1.21182
##WORKING -mm: 15
##D2STDCMP   : Re,(Re:100.0000)
##SIMILAR    : 1.1
#SPECTRUM    :
157,
9780,
92191,
44770,
55515,
64640,
76835,
87369,
86350,
88694,
188291,
99814,
120125,
1648489,
320417,
85140,
40706,
50308,
40397,
38587,
38066,
38565,
37792,
38012,
38155,
37731,
40198,
39669,
37044,
36206,
35394,
34662,
34411,
33772,
32759,
32242,
31981,
30996,
30333,
29694,
28846,
28048,
27577,
26707,
25832,
25568,
25223,
24075,
23798,
23112,
22147,
21538,
20770,
21019,
23820,
20755,
18634,
18208,
17630,
17134,
17116,
49702,
101373,
18348,
14909,
14270,
13210,
13008,
12707,
12520,
14096,
28319,
25149,
25985,
17763,
10563,
9117,
8387,
8104,
7739,
7520,
7260,
7031,
9439,
8262,
6415,
6299,
5372,
4967,
4731,
4354,
3964,
3728,
3515,
3228,
2934,
2772,
2523,
2157,
2008,
1816,
1583,
1319,
1087,
932,
654,
378,
152,
59,
46,
42,
52,
42,
34,
46,
38,
45,
23,
21,
24,
33,
29,
30,
43,
40,
28,
25,
22,
31,
22,
20,
15,
23,
25,
12,
28,
22,
17,
10,
22,
11,
18,
13,
14,
17,
5,
7,
10,
11,
8,
11,
8,
10,
4,
5,
9,
6,
2,
5,
5,
2,
1,
2,
2,
2,
2,
3,
3,
2,
3,
0,
0,
0,
1,
0,
1,
1,
2,
1,
2,
0,
2,
0,
0,
0,
0,
2,
0,
0,
1,
0,
0,
0,
0,
0,
0,
0,
0,
0,
0,
0,
0,
0,
0,
0,
0,
0,
0,
0,
0,
0,
0,
0,
0,
0,
0,
0,
0,
0,
0,
0,
0,
0,
0,
0,
0,
0,
0,
0,
0,
0,
0,
0,
0,
0,
0,
0,
0,
0,
0,
0,
0,
0,
0,
0,
0,
0,
0,
0,
0,
0,
0,
0,
0,
0,
0,
0,
0,
0,
0,
0,
0,
0,
0,
0,
0,
0,
0,
0,
0,
0,
0,
0,
0,
0,
0,
0,
0,
0,
0,
0,
0,
0,
0,
0,
0,
0,
0,
0,
0,
0,
0,
0,
0,
#ENDOFDATA   :