File: N132962/Standards/15 keV/Rh std.msa
#FORMAT      : EMSA/MAS Spectral Data File
#VERSION     : 1.0
#TITLE       : Rh standard for 'N132962' detector
#NPOINTS     : 4096
#NCOLUMNS    : 1
#XUNITS      : eV
#YUNITS      : counts
#DATATYPE    : Y
#SIGNALTYPE  : EDS
#XLABEL      : Energy (eV)
#YLABEL      : Counts
#XPERCHAN -eV: 9.99778
#OFFSET   -eV: 1.69135
#CHOFFSET    : 0
#DATE        : 25-Sep-2025
#TIME        : 20:39:00
#OWNER       : Unknown
#ELEVANGLE   : 35
#BEAMKV   -kV: 15
#LIVETIME  -s: 1920.85
#REALTIME  -s: 2108.85
#PROBECUR -nA: 1.20931
##WORKING -mm: 15
##D2STDCMP   : Rh,(Rh:100.0000)
##SIMILAR    : 1.3
#SPECTRUM    :
231,
18112,
435072,
39124,
37760,
43049,
56514,
88173,
80683,
77700,
80363,
83975,
84009,
84689,
99024,
82797,
73572,
146914,
106426,
1404253,
732608,
264688,
92271,
46079,
51547,
32674,
33238,
32813,
32890,
32426,
32062,
31818,
32826,
30634,
30290,
29886,
29147,
28678,
28937,
29029,
28228,
26418,
25153,
23753,
23389,
23087,
22859,
21531,
20939,
20285,
19369,
19238,
18492,
18343,
17565,
16862,
16234,
15998,
15652,
14907,
14395,
13802,
13240,
13104,
12663,
12801,
12261,
11187,
10995,
10508,
9930,
9782,
9167,
8902,
8567,
8100,
7995,
7523,
7394,
6679,
6532,
6069,
5759,
5390,
5240,
4953,
4524,
4339,
3953,
3858,
3602,
3211,
3103,
2781,
2607,
2368,
2112,
1996,
1645,
1567,
1289,
1188,
953,
760,
612,
454,
259,
110,
39,
38,
28,
26,
34,
24,
24,
12,
17,
16,
14,
17,
7,
19,
20,
18,
10,
16,
3,
12,
12,
11,
10,
13,
9,
5,
6,
2,
3,
7,
6,
8,
2,
6,
0,
4,
3,
7,
2,
1,
4,
1,
0,
3,
1,
3,
1,
0,
2,
1,
0,
2,
3,
2,
1,
0,
1,
1,
1,
0,
0,
1,
0,
1,
0,
0,
0,
0,
0,
0,
0,
0,
0,
0,
1,
1,
0,
0,
1,
0,
0,
0,
0,
1,
0,
0,
0,
0,
0,
0,
0,
0,
0,
0,
0,
0,
0,
0,
0,
0,
0,
0,
0,
0,
0,
0,
0,
0,
0,
0,
0,
0,
0,
0,
0,
0,
0,
0,
0,
0,
0,
0,
0,
0,
0,
0,
0,
0,
0,
0,
0,
0,
0,
0,
0,
0,
0,
0,
0,
0,
0,
0,
0,
0,
0,
0,
0,
0,
0,
0,
0,
0,
0,
0,
0,
0,
0,
0,
0,
0,
0,
0,
0,
0,
0,
0,
0,
0,
0,
0,
0,
0,
0,
0,
0,
0,
0,
0,
0,
0,
0,
0,
0,
0,
0,
0,
#ENDOFDATA   :