File: N132962/Standards/15 keV/Ru std.msa
#FORMAT      : EMSA/MAS Spectral Data File
#VERSION     : 1.0
#TITLE       : Ru standard for 'N132962' detector
#NPOINTS     : 4096
#NCOLUMNS    : 1
#XUNITS      : eV
#YUNITS      : counts
#DATATYPE    : Y
#SIGNALTYPE  : EDS
#XLABEL      : Energy (eV)
#YLABEL      : Counts
#XPERCHAN -eV: 9.99778
#OFFSET   -eV: 1.69135
#CHOFFSET    : 0
#DATE        : 30-Sep-2025
#TIME        : 17:27:00
#OWNER       : Unknown
#ELEVANGLE   : 35
#BEAMKV   -kV: 15
#LIVETIME  -s: 1684.76
#REALTIME  -s: 1853.22
#PROBECUR -nA: 1.23069
##WORKING -mm: 15
##D2STDCMP   : Ru,(Ru:100.0000)
##SIMILAR    : 1.3
#SPECTRUM    :
161,
21649,
216441,
33471,
35592,
43754,
77151,
67280,
67105,
70069,
72635,
74115,
76072,
75325,
64936,
64713,
133213,
98632,
1280823,
807996,
218044,
72935,
33671,
41099,
29468,
29192,
29734,
29719,
28771,
28962,
28096,
28044,
29145,
27051,
26320,
26247,
25830,
27239,
25188,
23809,
22789,
22071,
21212,
20755,
20150,
19540,
19517,
18342,
17913,
17302,
16547,
16606,
15686,
15517,
14906,
14448,
13841,
13672,
13095,
12556,
12216,
11780,
11388,
11011,
10573,
10138,
9671,
9551,
9300,
8604,
8559,
8144,
7757,
7594,
7052,
6885,
6574,
6263,
5979,
5628,
5249,
5195,
4992,
4616,
4257,
4141,
3855,
3615,
3372,
3115,
2992,
2755,
2615,
2316,
2138,
1976,
1692,
1638,
1482,
1310,
1075,
934,
750,
668,
511,
385,
221,
79,
31,
34,
29,
21,
21,
19,
24,
20,
18,
17,
14,
9,
10,
22,
10,
18,
11,
12,
6,
8,
6,
3,
8,
9,
7,
9,
3,
4,
5,
2,
6,
1,
1,
4,
4,
3,
1,
6,
2,
5,
0,
0,
1,
3,
1,
2,
1,
1,
1,
1,
0,
1,
0,
1,
0,
1,
2,
1,
1,
0,
0,
1,
1,
0,
1,
0,
0,
0,
0,
2,
0,
0,
0,
0,
0,
0,
1,
0,
0,
0,
0,
0,
1,
0,
0,
0,
0,
0,
0,
0,
0,
0,
0,
0,
0,
0,
0,
0,
0,
0,
0,
0,
0,
0,
0,
0,
0,
0,
0,
0,
0,
0,
0,
0,
0,
0,
0,
0,
0,
0,
0,
0,
0,
0,
0,
0,
0,
0,
0,
0,
0,
0,
0,
0,
0,
0,
0,
0,
0,
0,
0,
0,
0,
0,
0,
0,
0,
0,
0,
0,
0,
0,
0,
0,
0,
0,
0,
0,
0,
0,
0,
0,
0,
0,
0,
0,
0,
0,
0,
0,
0,
0,
0,
0,
0,
0,
0,
0,
0,
0,
0,
0,
0,
0,
0,
0,
#ENDOFDATA   :