File: N132962/Standards/15 keV/Sb std.msa
#FORMAT      : EMSA/MAS Spectral Data File
#VERSION     : 1.0
#TITLE       : Sb standard for 'N132962' detector
#NPOINTS     : 4096
#NCOLUMNS    : 1
#XUNITS      : eV
#YUNITS      : counts
#DATATYPE    : Y
#SIGNALTYPE  : EDS
#XLABEL      : Energy (eV)
#YLABEL      : Counts
#XPERCHAN -eV: 9.99778
#OFFSET   -eV: 1.69135
#CHOFFSET    : 0
#DATE        : 26-Sep-2025
#TIME        : 16:40:00
#OWNER       : Unknown
#ELEVANGLE   : 35
#BEAMKV   -kV: 15
#LIVETIME  -s: 2169.1
#REALTIME  -s: 2358.58
#PROBECUR -nA: 1.21512
##WORKING -mm: 15
##D2STDCMP   : Sb,(Sb:100.0000)
##SIMILAR    : 1.1
#SPECTRUM    :
205,
19740,
157749,
611800,
97334,
72922,
55604,
51530,
58601,
65406,
71380,
75682,
80095,
90809,
71876,
77935,
71265,
71165,
67763,
66349,
63941,
62237,
64261,
102324,
64461,
186817,
1110959,
291132,
397132,
179463,
71966,
101678,
39492,
60008,
32294,
30633,
30188,
30084,
30334,
30227,
28262,
27828,
27539,
26819,
25920,
26809,
28713,
24400,
23748,
23098,
22734,
22179,
21539,
21716,
20518,
19884,
18839,
18308,
17698,
17152,
16511,
15813,
15197,
14907,
14289,
13981,
13612,
13004,
12843,
12153,
11716,
11498,
10688,
10363,
10140,
9615,
9232,
8690,
8341,
7937,
7473,
7287,
6881,
6487,
6157,
5852,
5444,
5167,
4770,
4487,
4265,
4041,
3634,
3293,
3128,
2864,
2575,
2364,
2072,
1826,
1604,
1351,
1159,
1006,
762,
580,
302,
127,
50,
47,
35,
35,
27,
42,
31,
31,
30,
28,
27,
28,
21,
31,
20,
27,
29,
19,
20,
20,
20,
15,
10,
7,
15,
9,
9,
9,
8,
8,
9,
7,
8,
7,
4,
3,
4,
6,
3,
3,
5,
3,
3,
5,
0,
6,
2,
0,
0,
3,
2,
3,
1,
0,
1,
0,
2,
1,
1,
0,
0,
0,
0,
0,
1,
1,
0,
0,
0,
1,
0,
0,
1,
0,
0,
2,
0,
0,
0,
0,
0,
0,
0,
0,
0,
0,
0,
0,
0,
0,
0,
0,
0,
0,
0,
0,
0,
0,
0,
0,
0,
0,
0,
0,
0,
0,
0,
0,
0,
0,
0,
0,
0,
0,
0,
0,
0,
0,
0,
0,
0,
0,
0,
0,
0,
0,
0,
0,
0,
0,
0,
0,
0,
0,
0,
0,
0,
0,
0,
0,
0,
0,
0,
0,
0,
0,
0,
0,
0,
0,
0,
0,
0,
0,
0,
0,
0,
0,
0,
0,
0,
0,
0,
0,
0,
0,
0,
0,
0,
0,
0,
0,
0,
0,
0,
0,
0,
0,
0,
0,
0,
0,
0,
0,
0,
0,
#ENDOFDATA   :