File: N132962/Standards/15 keV/Sc std.msa
#FORMAT      : EMSA/MAS Spectral Data File
#VERSION     : 1.0
#TITLE       : Sc standard for 'N132962' detector
#NPOINTS     : 4096
#NCOLUMNS    : 1
#XUNITS      : eV
#YUNITS      : counts
#DATATYPE    : Y
#SIGNALTYPE  : EDS
#XLABEL      : Energy (eV)
#YLABEL      : Counts
#XPERCHAN -eV: 9.99778
#OFFSET   -eV: 1.69135
#CHOFFSET    : 0
#DATE        : 26-Sep-2025
#TIME        : 21:11:00
#OWNER       : Unknown
#ELEVANGLE   : 35
#BEAMKV   -kV: 15
#LIVETIME  -s: 1440.6
#REALTIME  -s: 1552.64
#PROBECUR -nA: 1.21419
##WORKING -mm: 15
##D2STDCMP   : Sc,(Sc:100.0000)
##SIMILAR    : 1.6
#SPECTRUM    :
143,
3109,
176076,
107450,
25684,
32649,
26677,
30749,
33684,
37395,
40757,
42802,
42461,
40240,
33384,
32656,
32805,
41459,
28815,
27865,
25874,
24321,
23655,
22675,
21833,
21619,
20294,
19811,
36261,
1468322,
155748,
36399,
215461,
13000,
10871,
10690,
10435,
10231,
10149,
9776,
9467,
9189,
9074,
8688,
8315,
8417,
8668,
7592,
7173,
7168,
6915,
6683,
6358,
6277,
6053,
5796,
5666,
5481,
6506,
6111,
4892,
5147,
4519,
4183,
4083,
3914,
3830,
3708,
3418,
3433,
3364,
3031,
3006,
2741,
2607,
2487,
2415,
2302,
2235,
2095,
1865,
1827,
1655,
1653,
1526,
1439,
1336,
1280,
1119,
1108,
991,
946,
794,
743,
738,
641,
563,
540,
433,
357,
324,
276,
223,
192,
130,
96,
70,
27,
10,
10,
13,
10,
2,
9,
7,
11,
4,
3,
4,
4,
2,
7,
6,
6,
3,
4,
2,
1,
5,
1,
1,
1,
2,
0,
3,
1,
0,
0,
1,
0,
1,
0,
1,
1,
0,
1,
0,
0,
0,
1,
0,
0,
1,
0,
0,
0,
0,
0,
0,
0,
0,
0,
0,
0,
0,
0,
0,
0,
0,
0,
0,
0,
0,
0,
0,
0,
0,
0,
0,
0,
0,
0,
0,
0,
0,
0,
0,
0,
0,
0,
0,
0,
0,
0,
0,
0,
0,
0,
0,
0,
0,
0,
0,
0,
0,
0,
0,
0,
0,
0,
0,
0,
0,
0,
0,
0,
0,
0,
0,
0,
0,
0,
0,
0,
0,
0,
0,
0,
0,
0,
0,
0,
0,
0,
0,
0,
0,
0,
0,
0,
0,
0,
0,
0,
0,
0,
0,
0,
0,
0,
0,
0,
0,
0,
0,
0,
0,
0,
0,
0,
0,
0,
0,
0,
0,
0,
0,
0,
0,
0,
0,
0,
0,
0,
0,
0,
0,
0,
0,
0,
0,
0,
0,
0,
0,
0,
0,
0,
0,
0,
0,
0,
0,
0,
#ENDOFDATA   :