File: N132962/Standards/15 keV/Se std.msa
#FORMAT      : EMSA/MAS Spectral Data File
#VERSION     : 1.0
#TITLE       : Se standard for 'N132962' detector
#NPOINTS     : 4096
#NCOLUMNS    : 1
#XUNITS      : eV
#YUNITS      : counts
#DATATYPE    : Y
#SIGNALTYPE  : EDS
#XLABEL      : Energy (eV)
#YLABEL      : Counts
#XPERCHAN -eV: 9.99778
#OFFSET   -eV: 1.69135
#CHOFFSET    : 0
#DATE        : 25-Sep-2025
#TIME        : 21:07:00
#OWNER       : Unknown
#ELEVANGLE   : 35
#BEAMKV   -kV: 15
#LIVETIME  -s: 1680.27
#REALTIME  -s: 1864.85
#PROBECUR -nA: 1.20952
##WORKING -mm: 15
##D2STDCMP   : Se,(Se:100.0000)
##SIMILAR    : 2.0
#SPECTRUM    :
210,
2446,
48819,
38633,
54760,
70498,
83123,
89508,
109159,
245876,
4412858,
56561,
33708,
33458,
31045,
32999,
33712,
34523,
34976,
37026,
53745,
33373,
32092,
31682,
30852,
30260,
29252,
28804,
27657,
27006,
25989,
25361,
26357,
24091,
23123,
22475,
21601,
20894,
20246,
19751,
19197,
18349,
17777,
17286,
16636,
16108,
16177,
14950,
14440,
13856,
13593,
13066,
12606,
12359,
11878,
11315,
10685,
10580,
10203,
9842,
9355,
9096,
8583,
8475,
8090,
7659,
7333,
7370,
6995,
6820,
6383,
6239,
6018,
5490,
5411,
5380,
5012,
4670,
4636,
11189,
41210,
10316,
3702,
3340,
3327,
2995,
2854,
2760,
3089,
7015,
4098,
2137,
1686,
1650,
1536,
1378,
1308,
1109,
993,
902,
788,
670,
568,
435,
346,
252,
150,
67,
24,
16,
11,
13,
15,
11,
17,
12,
5,
7,
7,
7,
5,
9,
8,
9,
8,
11,
8,
6,
12,
4,
9,
5,
6,
7,
5,
6,
6,
3,
6,
2,
2,
3,
4,
2,
5,
6,
4,
1,
1,
1,
3,
2,
2,
1,
2,
1,
3,
0,
0,
1,
2,
1,
1,
2,
0,
2,
0,
0,
2,
1,
0,
2,
0,
2,
0,
2,
1,
0,
2,
0,
1,
0,
0,
0,
0,
1,
0,
0,
0,
1,
0,
0,
0,
0,
1,
0,
0,
0,
0,
0,
0,
0,
0,
0,
0,
0,
0,
0,
0,
0,
0,
0,
0,
0,
0,
0,
0,
0,
0,
0,
0,
0,
0,
0,
0,
0,
0,
0,
0,
0,
0,
0,
0,
0,
0,
0,
0,
0,
0,
0,
0,
0,
0,
0,
0,
0,
0,
0,
0,
0,
0,
0,
0,
0,
0,
0,
0,
0,
0,
0,
0,
0,
0,
0,
0,
0,
0,
0,
0,
0,
0,
0,
0,
0,
0,
0,
0,
0,
0,
0,
0,
0,
0,
0,
0,
0,
0,
0,
0,
0,
0,
0,
0,
0,
#ENDOFDATA   :