File: N132962/Standards/15 keV/Si std.msa
#FORMAT      : EMSA/MAS Spectral Data File
#VERSION     : 1.0
#TITLE       : Si standard for 'N132962' detector
#NPOINTS     : 4096
#NCOLUMNS    : 1
#XUNITS      : eV
#YUNITS      : counts
#DATATYPE    : Y
#SIGNALTYPE  : EDS
#XLABEL      : Energy (eV)
#YLABEL      : Counts
#XPERCHAN -eV: 9.99778
#OFFSET   -eV: 1.69135
#CHOFFSET    : 0
#DATE        : 27-Sep-2025
#TIME        : 16:41:00
#OWNER       : Unknown
#ELEVANGLE   : 35
#BEAMKV   -kV: 15
#LIVETIME  -s: 2160.98
#REALTIME  -s: 2415.68
#PROBECUR -nA: 1.21005
##WORKING -mm: 15
##D2STDCMP   : Si,(Si:100.0000)
##SIMILAR    : 1.1
#SPECTRUM    :
223,
2529,
51681,
26036,
45425,
59388,
69635,
74405,
72618,
72599,
76609,
97762,
2628865,
1111263,
21007,
19396,
20775,
21120,
21421,
21671,
20834,
20518,
20092,
19574,
21271,
66915,
18801,
16599,
15696,
15353,
14731,
14199,
13728,
13292,
12672,
12242,
11827,
11552,
11212,
10587,
10264,
9725,
9416,
9262,
8751,
8440,
8201,
7836,
7296,
7043,
6883,
6749,
6419,
6235,
5876,
5551,
5493,
5297,
4981,
4782,
4558,
4378,
4332,
4101,
3809,
3670,
3421,
3363,
3258,
3023,
2950,
2692,
2596,
2555,
2327,
2352,
2157,
2127,
1911,
1934,
1685,
1532,
1523,
1407,
1330,
1231,
1230,
1047,
960,
970,
880,
811,
699,
702,
618,
495,
487,
426,
381,
325,
277,
217,
197,
146,
112,
76,
40,
20,
10,
7,
3,
6,
1,
2,
4,
2,
5,
2,
2,
2,
0,
2,
3,
1,
3,
0,
0,
0,
1,
0,
2,
1,
0,
0,
0,
1,
1,
0,
1,
0,
0,
0,
0,
0,
0,
0,
1,
1,
0,
0,
0,
0,
0,
0,
0,
0,
1,
0,
0,
0,
0,
0,
0,
0,
0,
0,
0,
0,
0,
0,
0,
0,
0,
0,
0,
0,
0,
0,
0,
0,
0,
0,
0,
0,
0,
0,
0,
0,
0,
0,
0,
0,
0,
0,
0,
0,
0,
0,
0,
0,
0,
0,
0,
0,
0,
0,
0,
0,
0,
0,
0,
0,
0,
0,
0,
0,
0,
0,
0,
0,
0,
0,
0,
0,
0,
0,
0,
0,
0,
0,
0,
0,
0,
0,
0,
0,
0,
0,
0,
0,
0,
0,
0,
1,
0,
0,
0,
0,
0,
0,
0,
0,
0,
0,
0,
0,
0,
0,
0,
0,
0,
0,
0,
0,
0,
0,
0,
0,
0,
0,
0,
0,
0,
0,
0,
0,
0,
0,
0,
0,
0,
0,
0,
0,
0,
0,
0,
0,
0,
0,
0,
0,
0,
0,
#ENDOFDATA   :