File: N132962/Standards/15 keV/SiO2 std.msa
#FORMAT      : EMSA/MAS Spectral Data File
#VERSION     : 1.0
#TITLE       : SiO2 standard for 'N132962' detector
#NPOINTS     : 4096
#NCOLUMNS    : 1
#XUNITS      : eV
#YUNITS      : counts
#DATATYPE    : Y
#SIGNALTYPE  : EDS
#XLABEL      : Energy (eV)
#YLABEL      : Counts
#XPERCHAN -eV: 9.99778
#OFFSET   -eV: 1.69135
#CHOFFSET    : 0
#DATE        : 27-Sep-2025
#TIME        : 17:12:00
#OWNER       : Unknown
#ELEVANGLE   : 35
#BEAMKV   -kV: 15
#LIVETIME  -s: 1919.23
#REALTIME  -s: 2064.84
#PROBECUR -nA: 1.20983
##WORKING -mm: 15
##D2STDCMP   : SiO2,(O:53.2563),(Si:46.7437)
##SIMILAR    : 1.2
#SPECTRUM    :
231,
1782,
47575,
86640,
785614,
20808,
27622,
36178,
34619,
36227,
39966,
48457,
925868,
417045,
17907,
17386,
30157,
17427,
16651,
16349,
15605,
14962,
14332,
13576,
13587,
20037,
12379,
11548,
11001,
10660,
10116,
9686,
9496,
8865,
8335,
8209,
7862,
7508,
7233,
6872,
6733,
6229,
6112,
5721,
5599,
5366,
5275,
4791,
4867,
4485,
4390,
4428,
3955,
3798,
3612,
3453,
3411,
3304,
3155,
3018,
2786,
2821,
2710,
2401,
2356,
2221,
2188,
2078,
1981,
1913,
1722,
1768,
1614,
1545,
1496,
1369,
1386,
1255,
1107,
1080,
1084,
987,
913,
868,
793,
771,
704,
650,
600,
591,
515,
443,
441,
396,
336,
286,
271,
275,
207,
196,
158,
147,
99,
83,
57,
46,
20,
3,
4,
2,
1,
0,
4,
2,
2,
0,
3,
1,
1,
0,
1,
0,
1,
0,
0,
1,
0,
0,
0,
2,
0,
0,
0,
0,
0,
0,
0,
0,
1,
1,
0,
0,
0,
0,
0,
0,
0,
0,
0,
0,
0,
0,
0,
0,
0,
0,
0,
0,
1,
0,
0,
0,
0,
0,
0,
0,
0,
0,
0,
0,
0,
0,
0,
0,
0,
0,
0,
0,
0,
0,
0,
0,
0,
0,
0,
0,
0,
0,
0,
0,
0,
0,
0,
0,
0,
0,
0,
0,
0,
0,
0,
0,
0,
0,
0,
0,
0,
0,
0,
0,
0,
0,
0,
0,
0,
0,
0,
0,
0,
0,
0,
0,
0,
0,
0,
0,
0,
0,
0,
0,
0,
0,
0,
0,
0,
0,
0,
0,
0,
0,
0,
0,
0,
0,
0,
0,
0,
0,
0,
0,
0,
0,
0,
0,
0,
0,
0,
0,
0,
0,
0,
0,
0,
0,
0,
0,
0,
0,
0,
0,
0,
0,
0,
0,
0,
0,
0,
0,
0,
0,
0,
0,
0,
0,
0,
0,
0,
0,
0,
0,
0,
0,
0,
0,
#ENDOFDATA   :