File: N132962/Standards/15 keV/Sm2O3 std.msa
#FORMAT      : EMSA/MAS Spectral Data File
#VERSION     : 1.0
#TITLE       : Sm2O3 standard for 'N132962' detector
#NPOINTS     : 4096
#NCOLUMNS    : 1
#XUNITS      : eV
#YUNITS      : counts
#DATATYPE    : Y
#SIGNALTYPE  : EDS
#XLABEL      : Energy (eV)
#YLABEL      : Counts
#XPERCHAN -eV: 9.99778
#OFFSET   -eV: 1.69135
#CHOFFSET    : 0
#DATE        : 26-Sep-2025
#TIME        : 17:01:00
#OWNER       : Unknown
#ELEVANGLE   : 35
#BEAMKV   -kV: 15
#LIVETIME  -s: 1680.62
#REALTIME  -s: 1797.22
#PROBECUR -nA: 1.21578
##WORKING -mm: 15
##D2STDCMP   : Sm2O3,(O:13.7639),(Sm:86.2361)
##SIMILAR    : 4.6
#SPECTRUM    :
148,
4440,
142992,
92868,
377697,
125644,
230036,
75554,
225700,
62218,
55401,
41460,
41114,
40927,
36644,
36852,
37275,
37694,
37132,
38287,
36328,
34866,
34464,
33684,
32709,
31814,
31238,
30863,
30984,
28253,
27703,
26930,
26544,
25129,
24467,
27136,
31321,
22564,
22134,
26402,
282109,
68549,
19595,
20449,
119778,
69584,
25029,
66827,
19676,
14093,
14807,
29903,
17071,
17414,
14332,
12433,
10877,
10645,
10283,
9845,
9627,
9335,
8976,
8600,
8601,
8170,
7802,
7587,
7371,
7078,
6688,
6615,
6339,
6015,
5773,
5768,
5150,
5061,
4883,
4538,
4422,
4234,
3888,
3798,
3470,
3248,
3095,
2859,
2716,
2464,
2282,
2155,
1898,
1748,
1668,
1494,
1328,
1146,
956,
859,
708,
641,
451,
328,
226,
112,
40,
23,
26,
21,
20,
14,
18,
10,
9,
6,
8,
11,
18,
10,
13,
20,
13,
17,
7,
12,
7,
13,
10,
13,
8,
13,
3,
5,
8,
5,
5,
5,
4,
1,
3,
3,
3,
4,
4,
4,
3,
2,
2,
1,
1,
2,
1,
2,
0,
0,
1,
0,
0,
0,
1,
1,
0,
0,
0,
0,
1,
0,
0,
0,
0,
0,
0,
0,
0,
1,
0,
0,
1,
0,
0,
0,
0,
0,
0,
0,
0,
0,
0,
0,
0,
0,
0,
1,
0,
0,
0,
0,
0,
0,
0,
0,
0,
0,
0,
0,
0,
0,
0,
0,
0,
0,
0,
0,
0,
0,
0,
0,
0,
0,
0,
0,
0,
0,
0,
0,
0,
0,
0,
0,
0,
0,
0,
0,
0,
0,
0,
0,
0,
0,
0,
0,
0,
0,
0,
0,
0,
0,
0,
0,
0,
0,
0,
0,
0,
0,
0,
0,
0,
0,
0,
0,
0,
0,
0,
0,
0,
0,
0,
0,
0,
0,
0,
0,
0,
0,
0,
0,
0,
0,
0,
0,
0,
0,
0,
0,
0,
0,
0,
0,
0,
0,
0,
0,
#ENDOFDATA   :