File: N132962/Standards/15 keV/SmP5O14 std.msa
#FORMAT      : EMSA/MAS Spectral Data File
#VERSION     : 1.0
#TITLE       : SmP5O14 standard for 'N132962' detector
#NPOINTS     : 4096
#NCOLUMNS    : 1
#XUNITS      : eV
#YUNITS      : counts
#DATATYPE    : Y
#SIGNALTYPE  : EDS
#XLABEL      : Energy (eV)
#YLABEL      : Counts
#XPERCHAN -eV: 9.99778
#OFFSET   -eV: 1.69135
#CHOFFSET    : 0
#DATE        : 17-Mar-2025
#TIME        : 16:39:00
#OWNER       : Unknown
#ELEVANGLE   : 35
#BEAMKV   -kV: 15
#LIVETIME  -s: 1678.34
#REALTIME  -s: 1770.2
#PROBECUR -nA: 1.02671
##WORKING -mm: 15
##D2STDCMP   : SmP5O14,(O:42.3242),(P:29.2639),(Sm:28.4119)
##SIMILAR    : 1.5
#SPECTRUM    :
157,
2539,
111406,
60740,
455601,
27520,
72930,
38018,
109992,
40253,
37441,
30827,
32280,
34428,
428312,
129798,
22227,
19887,
21807,
19213,
18879,
17963,
17744,
17083,
16545,
15783,
15590,
14757,
14650,
14478,
13405,
12723,
12545,
11976,
11494,
12166,
12999,
10482,
10228,
11138,
85543,
23506,
8712,
8827,
37469,
23145,
9939,
22158,
7985,
6517,
6705,
11192,
6979,
7064,
6409,
5579,
4830,
4639,
4722,
4632,
4369,
4069,
4057,
3788,
3604,
3587,
3387,
3285,
3057,
3045,
2803,
2835,
2587,
2522,
2385,
2236,
2219,
2057,
1927,
1852,
1770,
1576,
1591,
1406,
1355,
1279,
1199,
1149,
1075,
1002,
868,
807,
748,
701,
629,
534,
479,
437,
379,
322,
278,
250,
199,
157,
117,
62,
40,
8,
5,
3,
4,
6,
4,
2,
3,
5,
2,
1,
3,
2,
1,
1,
1,
1,
1,
1,
2,
2,
2,
0,
2,
2,
2,
0,
4,
2,
1,
1,
0,
0,
1,
3,
0,
0,
0,
0,
0,
0,
0,
0,
0,
0,
1,
0,
0,
0,
0,
0,
0,
0,
0,
0,
0,
0,
0,
0,
0,
0,
0,
0,
0,
0,
0,
0,
0,
0,
0,
0,
0,
0,
0,
0,
0,
0,
0,
0,
1,
0,
0,
0,
0,
0,
0,
0,
0,
0,
0,
0,
0,
0,
0,
0,
0,
0,
0,
0,
0,
0,
0,
0,
0,
0,
0,
0,
0,
0,
0,
0,
0,
0,
0,
0,
0,
0,
0,
0,
0,
0,
0,
0,
0,
0,
0,
0,
0,
0,
0,
0,
0,
0,
0,
0,
0,
0,
0,
0,
0,
0,
0,
0,
0,
0,
0,
0,
0,
0,
0,
0,
0,
0,
0,
0,
0,
0,
0,
0,
0,
0,
0,
0,
0,
0,
0,
0,
0,
0,
0,
0,
0,
0,
0,
0,
0,
0,
0,
0,
0,
0,
0,
0,
0,
0,
0,
0,
#ENDOFDATA   :