File: N132962/Standards/15 keV/Sn std.msa
#FORMAT      : EMSA/MAS Spectral Data File
#VERSION     : 1.0
#TITLE       : Sn standard for 'N132962' detector
#NPOINTS     : 4096
#NCOLUMNS    : 1
#XUNITS      : eV
#YUNITS      : counts
#DATATYPE    : Y
#SIGNALTYPE  : EDS
#XLABEL      : Energy (eV)
#YLABEL      : Counts
#XPERCHAN -eV: 9.99778
#OFFSET   -eV: 1.69135
#CHOFFSET    : 0
#DATE        : 26-Sep-2025
#TIME        : 15:36:00
#OWNER       : Unknown
#ELEVANGLE   : 35
#BEAMKV   -kV: 15
#LIVETIME  -s: 1680.03
#REALTIME  -s: 1834.38
#PROBECUR -nA: 1.22014
##WORKING -mm: 15
##D2STDCMP   : Sn,(Sn:100.0000)
##SIMILAR    : 1.9
#SPECTRUM    :
193,
14896,
126861,
304779,
59225,
61450,
41378,
42529,
48123,
54680,
59204,
67418,
79428,
67550,
62274,
58238,
57839,
56902,
54893,
53991,
51414,
54492,
85217,
58777,
276321,
638306,
499152,
181127,
183706,
52426,
50414,
46312,
29522,
25419,
25208,
25033,
24710,
24211,
24005,
23897,
23000,
22721,
22083,
21456,
21019,
20838,
21329,
19396,
18748,
19131,
18177,
18233,
17342,
16990,
16167,
15419,
15168,
14298,
13935,
13593,
12789,
12539,
12302,
11756,
11537,
11052,
10713,
10171,
9867,
9631,
9244,
8929,
8536,
8123,
7904,
7629,
7331,
6911,
6559,
6316,
5919,
5800,
5414,
5135,
4907,
4626,
4253,
4176,
3821,
3647,
3250,
3131,
2787,
2637,
2380,
2203,
2006,
1847,
1614,
1501,
1278,
1042,
891,
751,
577,
434,
237,
109,
48,
35,
36,
25,
32,
33,
24,
21,
17,
17,
16,
15,
19,
26,
26,
29,
22,
19,
14,
9,
10,
16,
8,
7,
5,
7,
13,
6,
11,
3,
3,
4,
7,
1,
8,
1,
2,
0,
4,
5,
2,
2,
6,
1,
3,
2,
2,
1,
2,
1,
0,
3,
0,
3,
1,
3,
0,
0,
0,
0,
0,
1,
0,
1,
0,
1,
1,
1,
0,
0,
0,
2,
1,
0,
0,
1,
0,
0,
0,
1,
0,
0,
0,
0,
0,
0,
0,
0,
0,
0,
0,
0,
0,
0,
0,
0,
0,
0,
0,
0,
0,
0,
0,
0,
0,
0,
0,
0,
0,
0,
0,
0,
0,
0,
0,
0,
0,
0,
0,
0,
0,
0,
0,
0,
0,
0,
0,
0,
0,
0,
0,
0,
0,
0,
0,
0,
0,
0,
0,
0,
0,
0,
0,
0,
0,
0,
0,
0,
0,
0,
0,
0,
0,
0,
0,
0,
0,
0,
0,
0,
0,
0,
0,
0,
0,
0,
0,
0,
0,
0,
0,
0,
0,
0,
0,
0,
0,
0,
0,
0,
0,
0,
0,
0,
0,
0,
#ENDOFDATA   :