File: N132962/Standards/15 keV/SrF2 std.msa
#FORMAT      : EMSA/MAS Spectral Data File
#VERSION     : 1.0
#TITLE       : SrF2 standard for 'N132962' detector
#NPOINTS     : 4096
#NCOLUMNS    : 1
#XUNITS      : eV
#YUNITS      : counts
#DATATYPE    : Y
#SIGNALTYPE  : EDS
#XLABEL      : Energy (eV)
#YLABEL      : Counts
#XPERCHAN -eV: 9.99778
#OFFSET   -eV: 1.69135
#CHOFFSET    : 0
#DATE        : 26-Sep-2025
#TIME        : 13:17:00
#OWNER       : Unknown
#ELEVANGLE   : 35
#BEAMKV   -kV: 15
#LIVETIME  -s: 1204.07
#REALTIME  -s: 1302.31
#PROBECUR -nA: 1.21801
##WORKING -mm: 15
##D2STDCMP   : SrF2,(F:30.2482),(Sr:69.7518)
##SIMILAR    : 1.1
#SPECTRUM    :
1940,
8504,
39224,
21703,
45754,
491057,
30657,
35164,
38887,
41190,
42960,
73686,
77886,
1435489,
114572,
20611,
21931,
19225,
21284,
18910,
18980,
18518,
18538,
18349,
17882,
17673,
20144,
17069,
15930,
15500,
14878,
14563,
14350,
13542,
13211,
12999,
12503,
11945,
11480,
11424,
10757,
10541,
10024,
9782,
9494,
9199,
9688,
8352,
8239,
8005,
7694,
7365,
7099,
7046,
6531,
6169,
6200,
5753,
5673,
5335,
5303,
5076,
4865,
4680,
4411,
4391,
3970,
3885,
3830,
3650,
3530,
3422,
3093,
3003,
2966,
2832,
2549,
2604,
2313,
2229,
2147,
2118,
1908,
1812,
1778,
1555,
1491,
1428,
1201,
1145,
1133,
1004,
931,
806,
730,
709,
628,
519,
501,
397,
357,
295,
220,
192,
134,
79,
34,
8,
6,
3,
4,
4,
7,
4,
2,
3,
2,
0,
1,
1,
2,
3,
2,
5,
2,
2,
3,
1,
3,
2,
1,
1,
3,
2,
3,
2,
1,
1,
1,
0,
2,
1,
0,
2,
0,
0,
1,
0,
0,
0,
1,
0,
0,
0,
1,
0,
0,
0,
0,
0,
1,
0,
0,
0,
0,
0,
0,
0,
0,
0,
0,
0,
0,
0,
0,
0,
0,
0,
0,
0,
0,
0,
0,
0,
0,
0,
0,
1,
0,
0,
0,
0,
0,
0,
0,
0,
0,
0,
0,
0,
0,
0,
0,
0,
0,
0,
0,
0,
0,
0,
0,
0,
0,
0,
0,
0,
0,
0,
0,
0,
0,
0,
0,
0,
0,
0,
0,
0,
0,
0,
0,
0,
0,
0,
0,
0,
0,
0,
0,
0,
0,
0,
0,
0,
0,
0,
0,
0,
0,
0,
0,
0,
0,
0,
0,
0,
0,
0,
0,
0,
0,
0,
0,
0,
0,
0,
0,
0,
0,
0,
0,
0,
0,
0,
0,
0,
0,
0,
0,
0,
0,
0,
0,
0,
0,
0,
0,
0,
0,
0,
0,
0,
0,
0,
#ENDOFDATA   :