File: N132962/Standards/15 keV/SrTiO3 std.msa
#FORMAT      : EMSA/MAS Spectral Data File
#VERSION     : 1.0
#TITLE       : SrTiO3 standard for 'N132962' detector
#NPOINTS     : 4096
#NCOLUMNS    : 1
#XUNITS      : eV
#YUNITS      : counts
#DATATYPE    : Y
#SIGNALTYPE  : EDS
#XLABEL      : Energy (eV)
#YLABEL      : Counts
#XPERCHAN -eV: 9.99778
#OFFSET   -eV: 1.69135
#CHOFFSET    : 0
#DATE        : 29-Sep-2025
#TIME        : 00:22:00
#OWNER       : Unknown
#ELEVANGLE   : 35
#BEAMKV   -kV: 15
#LIVETIME  -s: 1921.97
#REALTIME  -s: 2053.01
#PROBECUR -nA: 1.21151
##WORKING -mm: 15
##D2STDCMP   : SrTiO3,(O:26.1587),(Ti:26.0878),(Sr:47.7535)
##SIMILAR    : 1.0
#SPECTRUM    :
189,
5201,
127673,
107895,
187532,
34364,
43634,
48773,
53993,
58419,
61492,
93539,
92702,
1612413,
128745,
34052,
35370,
31854,
30790,
31027,
32904,
29303,
28773,
28288,
27575,
26676,
27943,
25102,
24035,
22977,
22618,
26649,
436058,
63930,
21491,
72129,
25764,
16446,
15956,
15634,
15115,
14657,
14122,
13640,
13228,
13820,
13271,
11981,
11612,
11137,
10793,
10320,
9838,
9779,
9322,
8829,
8677,
8123,
8147,
7747,
7377,
7111,
6951,
6600,
6350,
6104,
5976,
5608,
5488,
5305,
5023,
4714,
4558,
4382,
4121,
3990,
3852,
3591,
3398,
3200,
3095,
2867,
2677,
2491,
2452,
2165,
2098,
1987,
1844,
1690,
1533,
1399,
1365,
1180,
1088,
960,
842,
750,
676,
611,
542,
440,
373,
295,
234,
154,
75,
26,
15,
9,
11,
9,
11,
10,
11,
3,
6,
4,
6,
3,
6,
8,
4,
1,
3,
6,
2,
4,
5,
6,
2,
4,
2,
1,
4,
1,
1,
2,
0,
0,
1,
2,
0,
1,
0,
1,
0,
4,
2,
1,
1,
0,
0,
2,
1,
1,
0,
0,
0,
0,
0,
1,
0,
0,
0,
0,
0,
1,
0,
0,
0,
0,
0,
0,
0,
0,
0,
0,
0,
0,
0,
0,
0,
0,
0,
0,
0,
0,
0,
0,
0,
0,
0,
0,
1,
0,
0,
0,
0,
0,
0,
0,
0,
0,
0,
0,
0,
0,
0,
0,
0,
0,
0,
0,
0,
0,
0,
0,
0,
0,
0,
0,
0,
0,
0,
0,
0,
0,
0,
0,
0,
0,
0,
0,
0,
0,
0,
0,
0,
0,
0,
0,
0,
0,
0,
0,
0,
0,
0,
0,
0,
0,
0,
0,
0,
0,
0,
0,
0,
0,
0,
0,
0,
0,
0,
0,
0,
0,
0,
0,
0,
0,
0,
0,
0,
0,
0,
0,
0,
0,
0,
0,
0,
0,
0,
0,
0,
0,
0,
0,
0,
0,
0,
0,
#ENDOFDATA   :