File: N132962/Standards/15 keV/Ta std.msa
#FORMAT      : EMSA/MAS Spectral Data File
#VERSION     : 1.0
#TITLE       : Ta standard for 'N132962' detector
#NPOINTS     : 4096
#NCOLUMNS    : 1
#XUNITS      : eV
#YUNITS      : counts
#DATATYPE    : Y
#SIGNALTYPE  : EDS
#XLABEL      : Energy (eV)
#YLABEL      : Counts
#XPERCHAN -eV: 9.99778
#OFFSET   -eV: 1.69135
#CHOFFSET    : 0
#DATE        : 26-Sep-2025
#TIME        : 17:54:00
#OWNER       : Unknown
#ELEVANGLE   : 35
#BEAMKV   -kV: 15
#LIVETIME  -s: 2161.16
#REALTIME  -s: 2413.38
#PROBECUR -nA: 1.21605
##WORKING -mm: 15
##D2STDCMP   : Ta,(Ta:100.0000)
##SIMILAR    : 1.2
#SPECTRUM    :
209,
8031,
101761,
67870,
99831,
104784,
116602,
124542,
128750,
175722,
180337,
147093,
2565354,
450684,
121593,
61863,
75615,
57921,
56392,
58242,
56557,
57720,
58587,
57982,
60664,
62523,
56312,
55835,
54630,
53449,
52860,
52456,
51123,
50000,
49113,
48013,
47076,
45827,
44836,
44582,
42708,
41309,
40898,
39392,
38380,
38502,
39684,
35608,
34584,
33518,
33013,
40022,
32748,
30525,
28895,
28166,
27512,
41270,
220157,
61842,
25964,
23610,
22496,
21648,
21246,
22495,
46816,
69233,
33399,
52120,
21512,
16757,
14827,
14476,
13797,
13610,
12982,
15872,
20394,
12665,
13316,
11595,
9947,
9661,
8854,
8254,
7891,
7322,
7033,
6593,
6249,
5922,
5455,
5131,
4697,
4344,
4106,
3614,
3222,
2822,
2630,
2283,
1976,
1583,
1288,
930,
599,
221,
75,
73,
83,
66,
63,
62,
46,
64,
65,
46,
55,
34,
26,
48,
43,
43,
46,
62,
45,
47,
44,
45,
30,
36,
35,
24,
44,
33,
30,
25,
30,
18,
22,
30,
19,
16,
17,
21,
12,
13,
10,
11,
8,
7,
9,
12,
9,
11,
6,
8,
6,
7,
6,
4,
3,
7,
6,
1,
2,
3,
2,
3,
2,
2,
2,
0,
1,
1,
2,
3,
0,
1,
0,
0,
1,
1,
1,
0,
0,
1,
0,
0,
1,
0,
0,
0,
0,
0,
1,
0,
0,
0,
0,
0,
0,
0,
0,
0,
0,
0,
0,
0,
0,
0,
0,
0,
0,
0,
0,
0,
0,
0,
0,
0,
0,
0,
0,
0,
0,
0,
0,
0,
0,
0,
0,
0,
0,
0,
0,
0,
0,
0,
0,
0,
0,
0,
0,
0,
0,
0,
0,
0,
0,
0,
0,
0,
0,
0,
0,
0,
0,
0,
0,
0,
0,
0,
0,
0,
0,
0,
0,
0,
0,
0,
0,
0,
0,
0,
0,
0,
0,
0,
0,
0,
0,
0,
0,
0,
0,
0,
0,
0,
0,
0,
0,
0,
#ENDOFDATA   :