File: N132962/Standards/15 keV/Tb std.msa
#FORMAT      : EMSA/MAS Spectral Data File
#VERSION     : 1.0
#TITLE       : Tb standard for 'N132962' detector
#NPOINTS     : 4096
#NCOLUMNS    : 1
#XUNITS      : eV
#YUNITS      : counts
#DATATYPE    : Y
#SIGNALTYPE  : EDS
#XLABEL      : Energy (eV)
#YLABEL      : Counts
#XPERCHAN -eV: 9.99778
#OFFSET   -eV: 1.69135
#CHOFFSET    : 0
#DATE        : 26-Sep-2025
#TIME        : 17:22:00
#OWNER       : Unknown
#ELEVANGLE   : 35
#BEAMKV   -kV: 15
#LIVETIME  -s: 1440.3
#REALTIME  -s: 1565.25
#PROBECUR -nA: 1.21621
##WORKING -mm: 15
##D2STDCMP   : Tb,(Tb:100.0000)
##SIMILAR    : 2.2
#SPECTRUM    :
133,
4331,
76597,
65670,
110590,
133235,
94505,
283027,
96608,
541342,
55182,
51157,
48125,
42015,
38482,
38556,
39807,
40822,
40893,
41155,
40905,
40781,
39876,
39410,
39243,
38294,
37031,
36520,
35766,
34997,
34499,
33554,
33536,
32047,
30593,
30211,
29314,
28623,
28147,
31025,
35478,
26003,
25106,
24990,
83141,
308173,
29412,
21470,
21163,
46008,
144657,
40605,
42871,
51747,
16986,
15269,
15576,
19709,
31383,
15266,
19464,
13358,
12976,
11788,
11166,
10965,
10522,
10306,
10178,
9770,
9548,
8913,
8733,
8480,
8181,
7716,
7421,
7083,
6852,
6515,
6131,
6035,
5705,
5304,
5169,
4882,
4690,
4242,
4056,
3851,
3743,
3354,
3089,
2880,
2620,
2420,
2320,
2022,
1844,
1577,
1409,
1171,
1050,
846,
638,
471,
268,
105,
40,
42,
38,
34,
26,
33,
21,
19,
32,
27,
24,
21,
20,
37,
22,
23,
34,
19,
19,
21,
15,
18,
22,
22,
13,
19,
17,
13,
12,
10,
14,
7,
10,
5,
6,
4,
6,
8,
3,
7,
2,
1,
3,
5,
8,
2,
3,
2,
0,
2,
1,
4,
4,
1,
3,
2,
1,
2,
0,
1,
2,
3,
0,
0,
0,
1,
0,
1,
1,
0,
0,
2,
0,
0,
0,
2,
0,
0,
1,
0,
0,
0,
0,
0,
0,
0,
0,
0,
0,
0,
0,
0,
0,
0,
0,
0,
0,
0,
0,
0,
0,
0,
0,
0,
0,
0,
0,
0,
0,
0,
0,
0,
0,
0,
0,
0,
0,
0,
0,
0,
0,
0,
0,
0,
0,
0,
0,
0,
0,
0,
0,
0,
0,
0,
0,
0,
0,
0,
0,
0,
0,
0,
0,
0,
0,
0,
0,
0,
0,
0,
0,
0,
0,
0,
0,
0,
0,
0,
0,
0,
0,
0,
0,
0,
0,
0,
0,
0,
0,
0,
0,
0,
0,
0,
0,
0,
0,
0,
0,
0,
0,
0,
0,
0,
0,
0,
#ENDOFDATA   :