File: N132962/Standards/15 keV/TbP5O14 std.msa
#FORMAT      : EMSA/MAS Spectral Data File
#VERSION     : 1.0
#TITLE       : TbP5O14 standard for 'N132962' detector
#NPOINTS     : 4096
#NCOLUMNS    : 1
#XUNITS      : eV
#YUNITS      : counts
#DATATYPE    : Y
#SIGNALTYPE  : EDS
#XLABEL      : Energy (eV)
#YLABEL      : Counts
#XPERCHAN -eV: 9.99778
#OFFSET   -eV: 1.69135
#CHOFFSET    : 0
#DATE        : 17-Mar-2025
#TIME        : 16:16:00
#OWNER       : Unknown
#ELEVANGLE   : 35
#BEAMKV   -kV: 15
#LIVETIME  -s: 959.13
#REALTIME  -s: 1011.49
#PROBECUR -nA: 1.02671
##WORKING -mm: 15
##D2STDCMP   : TbP5O14,(O:41.6501),(P:28.7978),(Tb:29.5521)
##SIMILAR    : 1.0
#SPECTRUM    :
82,
1433,
65379,
33623,
243276,
15917,
19416,
42462,
22989,
120819,
21168,
20540,
20032,
19501,
235865,
72320,
12892,
11345,
12592,
11046,
10926,
10608,
10360,
10193,
9873,
9312,
9298,
8766,
8574,
8599,
7895,
7610,
7458,
6971,
6814,
6670,
6437,
6181,
5973,
6231,
6891,
5386,
5268,
5117,
11977,
40232,
5438,
4395,
4320,
7249,
19329,
6449,
6589,
7821,
3410,
3093,
3180,
3570,
4945,
3039,
3498,
2637,
2585,
2263,
2200,
2130,
2007,
1948,
1991,
1819,
1745,
1676,
1645,
1567,
1431,
1452,
1345,
1230,
1173,
1145,
1095,
1051,
952,
897,
855,
850,
672,
685,
611,
597,
561,
517,
470,
439,
408,
320,
304,
275,
264,
200,
180,
140,
113,
116,
71,
50,
31,
13,
2,
1,
2,
2,
1,
1,
2,
2,
2,
2,
1,
0,
2,
1,
2,
3,
1,
3,
0,
1,
1,
2,
1,
0,
1,
2,
2,
1,
0,
1,
0,
1,
0,
1,
1,
0,
2,
0,
0,
0,
0,
0,
0,
0,
0,
0,
0,
0,
0,
0,
0,
0,
0,
0,
0,
0,
0,
0,
0,
0,
1,
0,
0,
0,
0,
0,
0,
0,
0,
0,
0,
0,
0,
0,
0,
0,
0,
0,
0,
0,
0,
0,
0,
0,
0,
0,
0,
0,
0,
0,
0,
0,
0,
0,
0,
0,
0,
0,
0,
0,
0,
0,
0,
0,
0,
0,
0,
0,
0,
0,
0,
0,
0,
0,
0,
0,
0,
0,
0,
0,
0,
0,
0,
0,
0,
0,
0,
0,
0,
0,
0,
0,
0,
0,
0,
0,
0,
0,
0,
0,
0,
0,
0,
0,
0,
0,
0,
0,
0,
0,
0,
0,
0,
0,
0,
0,
0,
0,
0,
0,
0,
0,
0,
0,
0,
0,
0,
0,
0,
0,
0,
0,
0,
0,
0,
0,
0,
0,
0,
0,
0,
0,
0,
0,
0,
0,
#ENDOFDATA   :