File: N132962/Standards/15 keV/Te std.msa
#FORMAT      : EMSA/MAS Spectral Data File
#VERSION     : 1.0
#TITLE       : Te standard for 'N132962' detector
#NPOINTS     : 4096
#NCOLUMNS    : 1
#XUNITS      : eV
#YUNITS      : counts
#DATATYPE    : Y
#SIGNALTYPE  : EDS
#XLABEL      : Energy (eV)
#YLABEL      : Counts
#XPERCHAN -eV: 9.99778
#OFFSET   -eV: 1.69135
#CHOFFSET    : 0
#DATE        : 26-Sep-2025
#TIME        : 16:29:00
#OWNER       : Unknown
#ELEVANGLE   : 35
#BEAMKV   -kV: 15
#LIVETIME  -s: 1911.47
#REALTIME  -s: 2077.24
#PROBECUR -nA: 1.21512
##WORKING -mm: 15
##D2STDCMP   : Te,(Te:100.0000)
##SIMILAR    : 1.3
#SPECTRUM    :
206,
18235,
144746,
396905,
146881,
54668,
62113,
45556,
50476,
56303,
61438,
65936,
69789,
70627,
65619,
65402,
74449,
62683,
60650,
58149,
56409,
54233,
53313,
53946,
89325,
51977,
98824,
1153447,
95327,
541431,
102298,
161531,
45387,
68490,
42894,
38236,
27158,
26317,
26208,
26358,
25370,
24730,
24255,
23809,
23123,
23366,
24988,
21532,
20934,
20674,
20302,
19807,
18886,
18755,
18689,
17540,
17396,
16593,
16225,
15431,
14840,
14581,
14120,
13500,
12999,
12615,
12343,
11847,
11480,
10999,
10823,
10446,
9990,
9410,
8882,
8602,
8331,
7882,
7505,
7298,
6846,
6660,
6188,
5843,
5727,
5440,
4913,
4563,
4294,
4013,
3822,
3528,
3299,
3017,
2759,
2638,
2278,
2081,
1914,
1735,
1448,
1282,
1122,
888,
705,
476,
297,
102,
48,
42,
42,
37,
35,
35,
34,
18,
27,
25,
21,
16,
23,
25,
21,
24,
16,
21,
16,
18,
22,
10,
14,
10,
4,
9,
8,
10,
2,
4,
5,
4,
5,
3,
6,
2,
1,
5,
4,
3,
3,
3,
1,
2,
2,
1,
5,
3,
0,
1,
2,
0,
2,
0,
1,
3,
1,
1,
0,
1,
0,
0,
0,
0,
1,
3,
1,
0,
0,
1,
2,
0,
0,
0,
1,
0,
0,
2,
0,
1,
0,
0,
1,
0,
0,
1,
0,
0,
0,
0,
0,
0,
0,
0,
0,
0,
0,
0,
0,
0,
0,
0,
0,
0,
0,
1,
0,
0,
0,
0,
0,
0,
0,
0,
0,
0,
0,
0,
0,
0,
1,
0,
0,
0,
0,
0,
0,
0,
0,
0,
0,
0,
0,
0,
0,
0,
0,
0,
0,
0,
0,
0,
0,
0,
0,
0,
0,
0,
0,
0,
0,
0,
0,
0,
0,
0,
0,
0,
0,
0,
0,
0,
0,
0,
0,
0,
0,
0,
0,
0,
0,
0,
0,
0,
0,
0,
0,
0,
0,
0,
0,
0,
0,
0,
0,
0,
#ENDOFDATA   :