File: N132962/Standards/15 keV/Ti std.msa
#FORMAT      : EMSA/MAS Spectral Data File
#VERSION     : 1.0
#TITLE       : Ti standard for 'N132962' detector
#NPOINTS     : 4096
#NCOLUMNS    : 1
#XUNITS      : eV
#YUNITS      : counts
#DATATYPE    : Y
#SIGNALTYPE  : EDS
#XLABEL      : Energy (eV)
#YLABEL      : Counts
#XPERCHAN -eV: 9.99778
#OFFSET   -eV: 1.69135
#CHOFFSET    : 0
#DATE        : 26-Sep-2025
#TIME        : 22:27:00
#OWNER       : Unknown
#ELEVANGLE   : 35
#BEAMKV   -kV: 15
#LIVETIME  -s: 1919.16
#REALTIME  -s: 2065.11
#PROBECUR -nA: 1.21471
##WORKING -mm: 15
##D2STDCMP   : Ti,(Ti:100.0000)
##SIMILAR    : 1.5
#SPECTRUM    :
190,
3912,
93436,
704877,
43057,
27100,
33372,
38662,
44075,
47209,
51096,
53587,
54670,
53449,
45716,
43669,
42383,
40784,
39200,
38550,
46386,
33644,
32587,
31853,
29599,
28476,
27665,
26710,
25913,
24120,
24104,
43585,
1707383,
203022,
27323,
231541,
45285,
13599,
13862,
13330,
12823,
12776,
12319,
11847,
11522,
11582,
11709,
10561,
10308,
10020,
9549,
9392,
8835,
8702,
8244,
8070,
7792,
7483,
7348,
7104,
6807,
6384,
6310,
6068,
7178,
6593,
5353,
5501,
5238,
4782,
4526,
4349,
4102,
3948,
3574,
3491,
3405,
3092,
3096,
2897,
2878,
2580,
2488,
2263,
2123,
2063,
1921,
1855,
1655,
1554,
1432,
1259,
1178,
1079,
1074,
912,
801,
715,
679,
575,
520,
413,
346,
266,
201,
134,
88,
39,
24,
11,
19,
19,
16,
9,
13,
7,
8,
9,
4,
5,
6,
4,
6,
4,
9,
3,
5,
5,
8,
1,
2,
2,
2,
5,
2,
4,
3,
3,
2,
1,
0,
1,
1,
3,
1,
0,
1,
0,
0,
0,
0,
0,
0,
0,
0,
0,
0,
0,
0,
0,
1,
0,
1,
0,
0,
0,
1,
0,
0,
0,
0,
0,
0,
0,
0,
0,
0,
0,
1,
0,
0,
0,
0,
0,
0,
0,
0,
0,
0,
0,
0,
0,
0,
0,
0,
0,
0,
0,
0,
0,
0,
0,
0,
0,
0,
0,
0,
0,
0,
0,
0,
0,
0,
0,
0,
0,
0,
0,
0,
0,
0,
0,
0,
0,
0,
0,
0,
0,
0,
0,
0,
0,
0,
0,
0,
0,
0,
0,
0,
0,
0,
0,
0,
0,
0,
0,
0,
0,
0,
0,
0,
0,
0,
0,
0,
0,
0,
0,
0,
0,
0,
0,
0,
0,
0,
0,
0,
0,
0,
0,
0,
0,
0,
0,
0,
0,
0,
0,
0,
0,
0,
0,
0,
0,
0,
0,
0,
0,
0,
0,
0,
0,
0,
0,
#ENDOFDATA   :