File: N132962/Standards/15 keV/Tm std.msa
#FORMAT      : EMSA/MAS Spectral Data File
#VERSION     : 1.0
#TITLE       : Tm standard for 'N132962' detector
#NPOINTS     : 4096
#NCOLUMNS    : 1
#XUNITS      : eV
#YUNITS      : counts
#DATATYPE    : Y
#SIGNALTYPE  : EDS
#XLABEL      : Energy (eV)
#YLABEL      : Counts
#XPERCHAN -eV: 9.99778
#OFFSET   -eV: 1.69135
#CHOFFSET    : 0
#DATE        : 26-Sep-2025
#TIME        : 18:36:00
#OWNER       : Unknown
#ELEVANGLE   : 35
#BEAMKV   -kV: 15
#LIVETIME  -s: 1681.2
#REALTIME  -s: 1838.69
#PROBECUR -nA: 1.21629
##WORKING -mm: 15
##D2STDCMP   : Tm,(Tm:100.0000)
##SIMILAR    : 2.0
#SPECTRUM    :
158,
6710,
77960,
62403,
88705,
117898,
101340,
103015,
339920,
111604,
333748,
513802,
101248,
58341,
51501,
43395,
45105,
44785,
45434,
46361,
45997,
47479,
45621,
45497,
44513,
44467,
43922,
43241,
42199,
40872,
40494,
39536,
38679,
37855,
37072,
36382,
35617,
34242,
33674,
33833,
31662,
30533,
30019,
29187,
28565,
37771,
32695,
26052,
25496,
24667,
31732,
244944,
82287,
23274,
21310,
20656,
20576,
42390,
108617,
35318,
45901,
38691,
16611,
14611,
14238,
14455,
14349,
25321,
18103,
14417,
15332,
11619,
11524,
10224,
10011,
9500,
9200,
8748,
8659,
8012,
7752,
7364,
7045,
6802,
6298,
6081,
5618,
5416,
5078,
4750,
4520,
4244,
4049,
3597,
3424,
3150,
2947,
2647,
2323,
2120,
1752,
1575,
1398,
1136,
865,
664,
368,
182,
76,
77,
58,
65,
58,
49,
44,
34,
38,
30,
35,
45,
31,
43,
44,
35,
33,
41,
44,
20,
28,
25,
16,
13,
19,
24,
15,
28,
15,
21,
16,
14,
12,
16,
14,
9,
13,
6,
8,
9,
11,
8,
8,
10,
7,
3,
2,
3,
5,
3,
2,
1,
1,
2,
5,
2,
1,
3,
4,
1,
1,
2,
0,
0,
3,
1,
1,
0,
0,
3,
1,
0,
3,
0,
1,
0,
1,
2,
0,
0,
1,
0,
0,
1,
0,
0,
0,
0,
0,
0,
0,
0,
0,
0,
0,
0,
0,
0,
0,
0,
0,
0,
0,
0,
0,
0,
0,
0,
0,
0,
0,
0,
0,
0,
0,
0,
0,
0,
0,
1,
0,
0,
0,
0,
0,
0,
0,
0,
0,
0,
0,
0,
0,
0,
0,
0,
0,
0,
0,
0,
0,
0,
0,
0,
0,
0,
0,
0,
0,
0,
0,
0,
0,
0,
0,
0,
0,
0,
0,
0,
0,
0,
0,
0,
0,
0,
0,
0,
0,
0,
0,
0,
0,
0,
0,
0,
0,
0,
0,
0,
0,
0,
0,
0,
0,
0,
#ENDOFDATA   :