File: N132962/Standards/15 keV/TmP5O14 std.msa
#FORMAT      : EMSA/MAS Spectral Data File
#VERSION     : 1.0
#TITLE       : TmP5O14 standard for 'N132962' detector
#NPOINTS     : 4096
#NCOLUMNS    : 1
#XUNITS      : eV
#YUNITS      : counts
#DATATYPE    : Y
#SIGNALTYPE  : EDS
#XLABEL      : Energy (eV)
#YLABEL      : Counts
#XPERCHAN -eV: 9.99778
#OFFSET   -eV: 1.69135
#CHOFFSET    : 0
#DATE        : 17-Mar-2025
#TIME        : 15:40:00
#OWNER       : Unknown
#ELEVANGLE   : 35
#BEAMKV   -kV: 15
#LIVETIME  -s: 1438.617
#REALTIME  -s: 1519.47
#PROBECUR -nA: 1.0242
##WORKING -mm: 15
##D2STDCMP   : TmP5O14,(O:40.8891),(P:28.2716),(Tm:30.8393)
##SIMILAR    : 1.1
#SPECTRUM    :
161,
2297,
99297,
45739,
331184,
24548,
28809,
32443,
73653,
36050,
91075,
145206,
40857,
31666,
349694,
105520,
19095,
17229,
18699,
16968,
16363,
16111,
15614,
15559,
15097,
15099,
14225,
13602,
13401,
13345,
12074,
11928,
11418,
11121,
10937,
10481,
10171,
9880,
9486,
9259,
8681,
8292,
8182,
7925,
7608,
8769,
7969,
6978,
6739,
6479,
7459,
41754,
15481,
5789,
5441,
5291,
5103,
8389,
18718,
7102,
8749,
7801,
3951,
3771,
3574,
3482,
3458,
5138,
3909,
3159,
3349,
2771,
2584,
2423,
2361,
2180,
2099,
2030,
1888,
1887,
1736,
1629,
1553,
1418,
1356,
1290,
1179,
1161,
1007,
956,
874,
790,
782,
699,
610,
548,
493,
396,
414,
363,
299,
227,
207,
184,
132,
90,
46,
11,
7,
9,
4,
5,
3,
3,
3,
2,
4,
5,
1,
2,
0,
3,
3,
2,
1,
1,
1,
3,
3,
1,
1,
2,
1,
0,
1,
1,
0,
1,
1,
2,
1,
0,
0,
0,
1,
0,
0,
0,
0,
0,
0,
0,
0,
0,
1,
0,
0,
0,
0,
0,
1,
2,
0,
0,
0,
0,
0,
0,
0,
0,
0,
0,
0,
0,
0,
0,
0,
0,
0,
0,
0,
0,
0,
0,
0,
0,
0,
0,
0,
0,
0,
0,
0,
0,
0,
0,
0,
0,
0,
0,
0,
0,
0,
0,
0,
0,
0,
0,
0,
0,
0,
0,
0,
0,
0,
0,
0,
0,
0,
0,
0,
0,
0,
0,
0,
0,
0,
0,
0,
0,
0,
0,
0,
0,
0,
0,
0,
0,
0,
0,
0,
0,
0,
0,
0,
0,
0,
0,
0,
0,
0,
0,
0,
0,
0,
0,
0,
0,
0,
0,
0,
0,
0,
0,
0,
0,
0,
0,
0,
0,
0,
0,
0,
0,
0,
0,
0,
0,
0,
0,
0,
0,
0,
0,
0,
0,
0,
0,
0,
0,
0,
0,
0,
0,
#ENDOFDATA   :