File: N132962/Standards/15 keV/V std.msa
#FORMAT      : EMSA/MAS Spectral Data File
#VERSION     : 1.0
#TITLE       : V standard for 'N132962' detector
#NPOINTS     : 4096
#NCOLUMNS    : 1
#XUNITS      : eV
#YUNITS      : counts
#DATATYPE    : Y
#SIGNALTYPE  : EDS
#XLABEL      : Energy (eV)
#YLABEL      : Counts
#XPERCHAN -eV: 9.99778
#OFFSET   -eV: 1.69135
#CHOFFSET    : 0
#DATE        : 25-Sep-2025
#TIME        : 23:28:00
#OWNER       : Unknown
#ELEVANGLE   : 35
#BEAMKV   -kV: 15
#LIVETIME  -s: 1679.83
#REALTIME  -s: 1800.17
#PROBECUR -nA: 1.20539
##WORKING -mm: 15
##D2STDCMP   : V,(V:100.0000)
##SIMILAR    : 1.3
#SPECTRUM    :
174,
3238,
100500,
529003,
148310,
19309,
25703,
32333,
35224,
40371,
42252,
44507,
45380,
45465,
38706,
37564,
37030,
35308,
33819,
33277,
30977,
33769,
30302,
37245,
26442,
24907,
24295,
22592,
21827,
20971,
20251,
19461,
19170,
18557,
26675,
878357,
322561,
17805,
47278,
155030,
12427,
10814,
10800,
10493,
10014,
9793,
9851,
9363,
9054,
8563,
8387,
8039,
7837,
7519,
7438,
7009,
6754,
6761,
6337,
6087,
5923,
5747,
5621,
5305,
5106,
4800,
4698,
4538,
4303,
4146,
4572,
5010,
3764,
3484,
3598,
3283,
2844,
2951,
2740,
2668,
2408,
2275,
2043,
2023,
1845,
1689,
1642,
1524,
1410,
1326,
1168,
1110,
1016,
889,
817,
747,
624,
614,
518,
464,
364,
320,
241,
207,
140,
106,
58,
21,
11,
19,
10,
8,
16,
6,
8,
10,
15,
3,
9,
6,
6,
6,
5,
8,
12,
4,
6,
8,
3,
1,
5,
3,
5,
5,
5,
2,
4,
3,
2,
0,
2,
2,
0,
0,
1,
2,
0,
0,
1,
0,
0,
0,
0,
0,
0,
0,
0,
0,
0,
0,
0,
0,
0,
0,
1,
0,
0,
0,
0,
0,
0,
0,
0,
0,
0,
0,
0,
0,
0,
0,
0,
0,
0,
0,
0,
0,
0,
0,
0,
0,
0,
0,
0,
0,
0,
0,
0,
0,
0,
0,
0,
0,
0,
0,
0,
0,
0,
0,
0,
0,
0,
0,
0,
0,
0,
0,
0,
0,
0,
0,
0,
0,
0,
0,
0,
0,
0,
0,
0,
0,
0,
0,
0,
0,
0,
0,
0,
0,
0,
0,
0,
0,
0,
0,
0,
0,
0,
0,
0,
0,
0,
0,
0,
0,
0,
0,
0,
0,
0,
0,
0,
0,
0,
0,
0,
0,
0,
0,
0,
0,
0,
0,
0,
0,
0,
0,
0,
0,
0,
0,
0,
0,
0,
0,
0,
0,
0,
0,
0,
0,
0,
0,
0,
0,
#ENDOFDATA   :