File: N132962/Standards/15 keV/W std.msa
#FORMAT      : EMSA/MAS Spectral Data File
#VERSION     : 1.0
#TITLE       : W standard for 'N132962' detector
#NPOINTS     : 4096
#NCOLUMNS    : 1
#XUNITS      : eV
#YUNITS      : counts
#DATATYPE    : Y
#SIGNALTYPE  : EDS
#XLABEL      : Energy (eV)
#YLABEL      : Counts
#XPERCHAN -eV: 9.99778
#OFFSET   -eV: 1.69135
#CHOFFSET    : 0
#DATE        : 27-Sep-2025
#TIME        : 21:10:00
#OWNER       : Unknown
#ELEVANGLE   : 35
#BEAMKV   -kV: 15
#LIVETIME  -s: 2159.07
#REALTIME  -s: 2413.65
#PROBECUR -nA: 1.21182
##WORKING -mm: 15
##D2STDCMP   : W,(W:100.0000)
##SIMILAR    : 1.1
#SPECTRUM    :
233,
7979,
132362,
61582,
81613,
95209,
114018,
131874,
128362,
134242,
332099,
139249,
318461,
2668623,
82320,
74219,
65065,
67120,
57747,
56780,
58031,
56570,
57469,
58359,
57202,
61126,
62781,
55867,
55001,
54501,
53527,
52772,
51667,
50557,
49768,
48970,
47787,
46768,
45801,
45265,
43673,
42473,
41315,
39907,
39363,
38452,
38190,
36400,
35021,
34352,
32952,
32522,
33810,
38190,
29818,
28714,
27769,
27420,
27382,
57179,
196715,
37652,
24475,
22739,
21706,
20442,
20108,
20209,
29001,
65123,
32822,
47871,
23146,
16736,
14199,
13591,
12993,
12537,
12381,
12139,
15578,
15861,
11056,
11500,
9812,
8876,
8492,
7593,
7120,
6780,
6360,
5950,
5586,
5340,
4742,
4433,
4104,
3663,
3268,
2970,
2646,
2255,
1963,
1598,
1265,
991,
625,
255,
104,
66,
90,
78,
67,
67,
67,
58,
42,
55,
36,
48,
50,
61,
50,
52,
29,
37,
39,
38,
47,
50,
40,
50,
34,
29,
22,
25,
21,
23,
21,
26,
23,
28,
18,
23,
23,
14,
13,
15,
17,
12,
10,
15,
9,
9,
12,
4,
7,
7,
4,
6,
8,
2,
6,
5,
6,
2,
2,
3,
2,
3,
0,
4,
1,
3,
3,
1,
0,
0,
2,
2,
3,
2,
0,
2,
0,
1,
0,
3,
1,
1,
0,
0,
0,
0,
0,
0,
0,
0,
0,
0,
0,
1,
0,
0,
0,
0,
0,
0,
0,
0,
0,
0,
0,
0,
0,
0,
0,
0,
0,
0,
0,
0,
0,
0,
0,
0,
0,
0,
0,
0,
0,
0,
0,
0,
0,
0,
0,
0,
0,
0,
0,
0,
0,
0,
0,
0,
0,
0,
0,
0,
0,
0,
0,
0,
0,
0,
0,
0,
0,
0,
0,
0,
0,
0,
0,
0,
0,
0,
0,
0,
0,
0,
0,
0,
0,
0,
0,
0,
0,
0,
0,
0,
0,
0,
0,
0,
0,
0,
0,
0,
0,
0,
0,
0,
#ENDOFDATA   :