File: N132962/Standards/15 keV/Y std.msa
#FORMAT      : EMSA/MAS Spectral Data File
#VERSION     : 1.0
#TITLE       : Y standard for 'N132962' detector
#NPOINTS     : 4096
#NCOLUMNS    : 1
#XUNITS      : eV
#YUNITS      : counts
#DATATYPE    : Y
#SIGNALTYPE  : EDS
#XLABEL      : Energy (eV)
#YLABEL      : Counts
#XPERCHAN -eV: 9.99778
#OFFSET   -eV: 1.69135
#CHOFFSET    : 0
#DATE        : 30-Sep-2025
#TIME        : 17:38:00
#OWNER       : Unknown
#ELEVANGLE   : 35
#BEAMKV   -kV: 15
#LIVETIME  -s: 1681.6
#REALTIME  -s: 1845.27
#PROBECUR -nA: 1.23077
##WORKING -mm: 15
##D2STDCMP   : Y,(Y:100.0000)
##SIMILAR    : 3.9
#SPECTRUM    :
188,
20369,
66574,
40711,
119091,
172236,
58496,
65509,
71904,
76763,
80777,
81585,
198359,
269594,
2044127,
176143,
34293,
39605,
31160,
32978,
31003,
31405,
31277,
30977,
30733,
30214,
30363,
31750,
33746,
28233,
26711,
25845,
28185,
24858,
23966,
23552,
22778,
22224,
21247,
20467,
20045,
19633,
18744,
18449,
17640,
17210,
16910,
15888,
15391,
14870,
14334,
14067,
13528,
13231,
12580,
12318,
11826,
11399,
10970,
10657,
10131,
9691,
9388,
9207,
8761,
8388,
8213,
7742,
7504,
7284,
6851,
6699,
6466,
6064,
5852,
5539,
5253,
4948,
4759,
4481,
4307,
3931,
3856,
3703,
3405,
3273,
2843,
2786,
2676,
2482,
2324,
2035,
1897,
1664,
1573,
1430,
1276,
1131,
982,
898,
674,
658,
494,
424,
317,
198,
103,
56,
29,
17,
14,
11,
11,
17,
15,
8,
8,
8,
6,
6,
7,
7,
4,
4,
8,
7,
7,
6,
6,
5,
3,
3,
3,
5,
5,
4,
2,
4,
7,
2,
2,
1,
3,
1,
4,
1,
3,
0,
2,
2,
1,
0,
1,
1,
1,
1,
0,
2,
0,
0,
0,
1,
0,
0,
0,
0,
1,
0,
2,
1,
0,
2,
1,
0,
0,
0,
0,
1,
1,
0,
1,
0,
0,
0,
0,
0,
0,
0,
0,
0,
1,
0,
0,
0,
0,
0,
0,
0,
0,
0,
0,
0,
0,
0,
0,
0,
0,
0,
0,
0,
0,
0,
0,
0,
0,
0,
0,
0,
0,
0,
0,
0,
0,
0,
0,
0,
0,
0,
0,
0,
0,
0,
0,
0,
0,
0,
0,
0,
0,
0,
0,
0,
0,
0,
0,
0,
0,
0,
0,
0,
0,
0,
0,
0,
0,
0,
0,
0,
0,
0,
0,
0,
0,
0,
0,
0,
0,
0,
0,
0,
0,
0,
0,
0,
0,
0,
0,
0,
0,
0,
0,
0,
0,
0,
0,
0,
0,
0,
0,
0,
0,
0,
0,
0,
#ENDOFDATA   :