File: N132962/Standards/15 keV/Yb std.msa
#FORMAT      : EMSA/MAS Spectral Data File
#VERSION     : 1.0
#TITLE       : Yb standard for 'N132962' detector
#NPOINTS     : 4096
#NCOLUMNS    : 1
#XUNITS      : eV
#YUNITS      : counts
#DATATYPE    : Y
#SIGNALTYPE  : EDS
#XLABEL      : Energy (eV)
#YLABEL      : Counts
#XPERCHAN -eV: 9.99778
#OFFSET   -eV: 1.69135
#CHOFFSET    : 0
#DATE        : 26-Sep-2025
#TIME        : 18:25:00
#OWNER       : Unknown
#ELEVANGLE   : 35
#BEAMKV   -kV: 15
#LIVETIME  -s: 1200.35
#REALTIME  -s: 1321.62
#PROBECUR -nA: 1.21629
##WORKING -mm: 15
##D2STDCMP   : Yb,(Yb:100.0000)
##SIMILAR    : 5.9
#SPECTRUM    :
121,
4624,
65544,
45447,
99370,
87391,
63357,
66396,
107579,
88822,
93054,
1347455,
46067,
46314,
39599,
32069,
30339,
31250,
31230,
32536,
31868,
32314,
34209,
31521,
31162,
30522,
30685,
29885,
29565,
28727,
28186,
27257,
27322,
26023,
25537,
25285,
24096,
23808,
23425,
23095,
22182,
21500,
20722,
19964,
19575,
19571,
22062,
23732,
17790,
16796,
17018,
16221,
36509,
165096,
25248,
14495,
13456,
13302,
13113,
21651,
65652,
24499,
26914,
25758,
10944,
9367,
9067,
8919,
8902,
10721,
15995,
8813,
9640,
8060,
7012,
6835,
6168,
5993,
5763,
5623,
5307,
5151,
4859,
4456,
4377,
4138,
3930,
3682,
3438,
3164,
3012,
2727,
2630,
2388,
2257,
2030,
1888,
1629,
1478,
1397,
1174,
996,
847,
723,
557,
402,
271,
111,
34,
36,
37,
30,
46,
42,
35,
34,
38,
13,
18,
22,
19,
28,
29,
38,
22,
20,
23,
13,
18,
16,
20,
21,
20,
10,
17,
16,
8,
12,
5,
15,
6,
9,
6,
9,
5,
3,
5,
5,
11,
4,
2,
3,
4,
3,
2,
6,
6,
3,
3,
3,
2,
1,
4,
1,
1,
1,
0,
1,
1,
1,
2,
2,
0,
0,
0,
0,
0,
0,
1,
0,
0,
0,
0,
1,
0,
0,
0,
0,
1,
0,
0,
0,
0,
0,
0,
1,
0,
0,
0,
0,
0,
0,
0,
0,
0,
0,
0,
0,
0,
0,
0,
0,
0,
0,
0,
0,
0,
0,
0,
0,
0,
0,
0,
0,
0,
0,
0,
0,
0,
0,
0,
0,
0,
0,
0,
0,
0,
0,
0,
0,
0,
0,
0,
0,
0,
0,
0,
0,
0,
0,
0,
0,
0,
0,
0,
0,
0,
0,
0,
0,
0,
0,
0,
0,
0,
0,
0,
0,
0,
0,
0,
0,
0,
0,
0,
0,
0,
0,
0,
0,
0,
0,
0,
0,
0,
0,
0,
0,
0,
0,
0,
0,
0,
0,
#ENDOFDATA   :