File: N132962/Standards/15 keV/YbP5O14 std.msa
#FORMAT      : EMSA/MAS Spectral Data File
#VERSION     : 1.0
#TITLE       : YbP5O14 standard for 'N132962' detector
#NPOINTS     : 4096
#NCOLUMNS    : 1
#XUNITS      : eV
#YUNITS      : counts
#DATATYPE    : Y
#SIGNALTYPE  : EDS
#XLABEL      : Energy (eV)
#YLABEL      : Counts
#XPERCHAN -eV: 9.99778
#OFFSET   -eV: 1.69135
#CHOFFSET    : 0
#DATE        : 17-Mar-2025
#TIME        : 15:53:00
#OWNER       : Unknown
#ELEVANGLE   : 35
#BEAMKV   -kV: 15
#LIVETIME  -s: 1198.85
#REALTIME  -s: 1267.74
#PROBECUR -nA: 1.0242
##WORKING -mm: 15
##D2STDCMP   : YbP5O14,(O:40.5845),(P:28.0610),(Yb:31.3544)
##SIMILAR    : 1.1
#SPECTRUM    :
127,
1868,
83566,
38101,
268110,
19873,
23664,
26510,
36724,
33656,
34057,
370656,
26438,
28661,
290775,
88918,
15789,
14589,
15519,
14039,
13650,
13666,
13507,
12871,
12615,
12654,
12332,
11258,
11233,
11077,
10462,
10028,
9744,
9483,
8992,
8717,
8306,
8124,
7972,
7582,
7366,
7213,
7027,
6709,
6368,
6325,
6688,
6985,
5460,
5415,
5232,
5117,
9127,
34527,
6617,
4344,
4159,
4045,
3925,
5590,
13941,
5985,
6433,
6335,
3092,
2771,
2713,
2630,
2599,
2875,
3825,
2359,
2567,
2212,
2017,
2003,
1777,
1675,
1628,
1454,
1402,
1436,
1276,
1216,
1168,
1082,
984,
959,
886,
867,
749,
713,
604,
577,
515,
493,
387,
402,
330,
302,
236,
217,
165,
137,
107,
55,
34,
7,
5,
3,
1,
3,
1,
4,
3,
6,
2,
0,
2,
3,
1,
4,
2,
0,
1,
2,
0,
3,
0,
1,
3,
2,
2,
1,
0,
0,
1,
2,
0,
0,
1,
2,
0,
2,
0,
1,
0,
2,
0,
0,
1,
0,
0,
0,
0,
0,
0,
0,
0,
0,
0,
2,
0,
0,
0,
1,
0,
0,
0,
0,
0,
0,
0,
0,
0,
0,
0,
0,
0,
0,
0,
0,
0,
0,
0,
0,
0,
0,
0,
0,
0,
0,
0,
0,
0,
0,
0,
0,
0,
0,
0,
0,
0,
0,
0,
0,
0,
0,
0,
0,
0,
0,
0,
0,
0,
0,
0,
0,
0,
0,
0,
0,
0,
0,
0,
0,
0,
0,
0,
0,
0,
0,
0,
0,
0,
0,
0,
0,
0,
0,
0,
0,
0,
0,
0,
0,
0,
0,
0,
0,
0,
0,
0,
0,
0,
0,
0,
0,
0,
0,
0,
0,
0,
0,
0,
0,
0,
0,
0,
0,
0,
0,
0,
0,
0,
0,
0,
0,
0,
0,
0,
0,
0,
0,
0,
0,
0,
0,
0,
0,
0,
0,
0,
0,
#ENDOFDATA   :