File: N132962/Standards/15 keV/YP5O14 std.msa
#FORMAT      : EMSA/MAS Spectral Data File
#VERSION     : 1.0
#TITLE       : YP5O14 standard for 'N132962' detector
#NPOINTS     : 4096
#NCOLUMNS    : 1
#XUNITS      : eV
#YUNITS      : counts
#DATATYPE    : Y
#SIGNALTYPE  : EDS
#XLABEL      : Energy (eV)
#YLABEL      : Counts
#XPERCHAN -eV: 9.99778
#OFFSET   -eV: 1.69135
#CHOFFSET    : 0
#DATE        : 17-Mar-2025
#TIME        : 17:25:00
#OWNER       : Unknown
#ELEVANGLE   : 35
#BEAMKV   -kV: 15
#LIVETIME  -s: 1917.96
#REALTIME  -s: 2023.74
#PROBECUR -nA: 1.02589
##WORKING -mm: 15
##D2STDCMP   : YP5O14,(O:47.8847),(P:33.1086),(Y:19.0067)
##SIMILAR    : 1.2
#SPECTRUM    :
180,
4261,
123650,
51163,
418482,
24522,
29023,
33123,
36009,
38141,
39272,
39341,
60318,
72039,
988805,
205826,
20842,
19086,
20225,
16566,
15829,
15999,
15375,
14741,
14507,
13796,
13721,
12958,
13757,
13586,
11396,
11013,
10625,
10387,
9734,
9395,
9340,
8862,
8578,
8092,
7648,
7379,
7371,
7016,
6671,
6482,
6463,
5853,
5736,
5478,
5272,
5078,
4897,
4687,
4544,
4424,
4047,
3937,
3750,
3620,
3565,
3354,
3327,
3196,
2958,
2773,
2735,
2599,
2495,
2402,
2307,
2098,
2084,
1994,
1844,
1855,
1618,
1603,
1610,
1419,
1339,
1210,
1245,
1074,
1017,
1015,
890,
799,
775,
679,
694,
608,
552,
557,
461,
433,
364,
329,
282,
257,
217,
182,
147,
120,
81,
69,
26,
10,
2,
2,
1,
2,
1,
2,
0,
2,
3,
2,
1,
1,
1,
0,
0,
0,
0,
1,
0,
2,
0,
0,
1,
0,
1,
0,
0,
0,
0,
0,
0,
0,
2,
0,
0,
0,
0,
1,
0,
0,
0,
0,
0,
0,
1,
0,
0,
0,
0,
0,
0,
0,
0,
0,
0,
0,
0,
0,
0,
0,
0,
0,
0,
0,
0,
0,
0,
0,
1,
0,
0,
0,
0,
0,
0,
0,
0,
0,
0,
0,
0,
0,
0,
0,
0,
0,
0,
0,
0,
0,
0,
0,
0,
0,
0,
0,
0,
0,
0,
0,
0,
0,
1,
0,
0,
0,
0,
0,
0,
0,
0,
0,
0,
0,
0,
0,
0,
0,
0,
0,
0,
0,
0,
0,
0,
0,
0,
0,
0,
0,
0,
0,
0,
0,
0,
0,
0,
0,
0,
0,
0,
0,
0,
0,
0,
0,
0,
0,
0,
0,
0,
0,
0,
0,
0,
0,
0,
0,
0,
0,
0,
0,
0,
0,
0,
0,
0,
0,
0,
0,
0,
0,
0,
0,
0,
0,
0,
0,
0,
0,
0,
0,
0,
0,
0,
0,
#ENDOFDATA   :