File: N132962/Standards/15 keV/Zn std.msa
#FORMAT      : EMSA/MAS Spectral Data File
#VERSION     : 1.0
#TITLE       : Zn standard for 'N132962' detector
#NPOINTS     : 4096
#NCOLUMNS    : 1
#XUNITS      : eV
#YUNITS      : counts
#DATATYPE    : Y
#SIGNALTYPE  : EDS
#XLABEL      : Energy (eV)
#YLABEL      : Counts
#XPERCHAN -eV: 9.99778
#OFFSET   -eV: 1.69135
#CHOFFSET    : 0
#DATE        : 26-Sep-2025
#TIME        : 23:20:00
#OWNER       : Unknown
#ELEVANGLE   : 35
#BEAMKV   -kV: 15
#LIVETIME  -s: 1680.43
#REALTIME  -s: 1859.54
#PROBECUR -nA: 1.21547
##WORKING -mm: 15
##D2STDCMP   : Zn,(Zn:100.0000)
##SIMILAR    : 1.3
#SPECTRUM    :
188,
2982,
89573,
48789,
82803,
94889,
267282,
3084729,
78227,
28410,
31395,
36085,
39390,
42035,
44276,
41260,
36891,
36904,
36273,
36467,
35188,
33819,
32855,
31866,
31061,
29982,
28983,
27989,
26923,
26219,
25488,
24419,
23325,
22733,
22065,
21116,
20310,
19700,
19033,
18576,
17347,
17280,
16696,
15913,
15533,
15203,
15948,
13814,
13438,
13271,
12550,
12108,
11492,
11300,
10816,
10265,
10074,
9499,
9395,
9237,
10536,
120285,
195316,
11836,
7588,
7378,
7216,
8214,
34894,
21292,
5672,
5064,
4955,
4697,
4531,
4518,
4454,
3929,
3813,
3637,
3378,
3245,
3076,
2994,
2780,
2657,
2422,
2323,
2142,
1947,
1856,
1658,
1619,
1448,
1306,
1160,
1105,
974,
867,
774,
651,
576,
438,
368,
303,
192,
117,
44,
19,
19,
10,
21,
22,
10,
23,
15,
11,
14,
10,
10,
7,
12,
26,
66,
43,
16,
11,
9,
6,
17,
28,
13,
6,
7,
10,
6,
3,
3,
6,
7,
4,
7,
3,
1,
4,
3,
2,
1,
3,
2,
3,
4,
1,
1,
2,
2,
0,
0,
0,
1,
0,
2,
0,
0,
3,
0,
0,
1,
0,
1,
0,
1,
1,
0,
0,
0,
0,
0,
0,
1,
0,
0,
0,
0,
0,
0,
0,
0,
0,
0,
0,
0,
0,
0,
0,
0,
0,
0,
0,
0,
0,
0,
0,
0,
0,
0,
0,
0,
0,
0,
0,
0,
0,
0,
0,
0,
0,
0,
0,
0,
0,
0,
0,
0,
0,
0,
0,
0,
0,
0,
0,
0,
0,
0,
0,
0,
0,
0,
0,
0,
0,
0,
0,
0,
0,
0,
0,
0,
0,
0,
0,
0,
0,
0,
0,
0,
0,
0,
0,
0,
0,
0,
0,
0,
0,
0,
0,
0,
0,
0,
0,
0,
0,
0,
0,
0,
0,
0,
0,
0,
0,
0,
0,
0,
0,
0,
0,
0,
0,
0,
0,
0,
0,
0,
#ENDOFDATA   :