File: N132962/Standards/15 keV/ZnS std.msa
#FORMAT      : EMSA/MAS Spectral Data File
#VERSION     : 1.0
#TITLE       : ZnS standard for 'N132962' detector
#NPOINTS     : 4096
#NCOLUMNS    : 1
#XUNITS      : eV
#YUNITS      : counts
#DATATYPE    : Y
#SIGNALTYPE  : EDS
#XLABEL      : Energy (eV)
#YLABEL      : Counts
#XPERCHAN -eV: 9.99778
#OFFSET   -eV: 1.69135
#CHOFFSET    : 0
#DATE        : 27-Sep-2025
#TIME        : 18:15:00
#OWNER       : Unknown
#ELEVANGLE   : 35
#BEAMKV   -kV: 15
#LIVETIME  -s: 2159.14
#REALTIME  -s: 2357.74
#PROBECUR -nA: 1.20962
##WORKING -mm: 15
##D2STDCMP   : ZnS,(S:32.9023),(Zn:67.0977)
##SIMILAR    : 1.1
#SPECTRUM    :
256,
4824,
75373,
42244,
100000,
91940,
220650,
2347349,
90814,
41100,
45142,
48588,
51809,
54022,
51649,
53699,
475034,
367564,
86789,
34925,
34302,
33548,
33050,
33899,
37069,
30725,
29530,
28714,
27651,
26730,
25534,
25048,
24219,
24689,
22905,
21661,
21139,
20218,
19782,
19103,
18109,
17420,
17057,
16302,
15738,
15235,
14897,
14230,
13619,
13291,
12903,
12094,
11699,
11559,
11047,
10556,
10263,
9956,
9643,
9340,
10079,
97995,
157545,
11005,
7618,
7318,
7208,
8011,
29319,
17554,
5547,
5325,
5003,
4931,
4636,
4413,
4318,
4204,
4178,
3749,
3489,
3276,
3156,
2861,
2764,
2701,
2499,
2256,
2051,
2006,
1877,
1727,
1554,
1428,
1280,
1132,
1045,
921,
871,
714,
595,
533,
452,
337,
299,
200,
117,
47,
22,
24,
19,
16,
16,
13,
13,
8,
7,
3,
11,
11,
12,
12,
14,
49,
20,
4,
7,
11,
5,
3,
12,
10,
14,
2,
7,
5,
8,
3,
5,
4,
2,
2,
5,
3,
2,
2,
0,
5,
2,
1,
1,
2,
2,
4,
2,
3,
0,
0,
1,
0,
0,
0,
1,
1,
0,
0,
1,
0,
0,
0,
1,
0,
0,
0,
0,
0,
0,
0,
0,
0,
0,
0,
0,
0,
0,
0,
0,
0,
0,
0,
0,
0,
0,
0,
0,
0,
0,
0,
0,
0,
0,
0,
0,
0,
0,
0,
0,
0,
0,
0,
0,
0,
0,
0,
0,
0,
0,
0,
0,
0,
0,
0,
0,
0,
0,
0,
0,
0,
0,
0,
0,
0,
0,
0,
0,
0,
0,
0,
0,
0,
0,
0,
0,
0,
0,
0,
0,
0,
0,
0,
0,
0,
0,
0,
0,
0,
0,
0,
0,
0,
0,
0,
0,
0,
0,
0,
0,
0,
0,
0,
0,
0,
0,
0,
0,
0,
0,
0,
0,
0,
0,
0,
0,
0,
0,
0,
0,
0,
0,
0,
0,
0,
0,
0,
#ENDOFDATA   :