File: N132962/Standards/15 keV/Zr std.msa
#FORMAT      : EMSA/MAS Spectral Data File
#VERSION     : 1.0
#TITLE       : Zr standard for 'N132962' detector
#NPOINTS     : 4096
#NCOLUMNS    : 1
#XUNITS      : eV
#YUNITS      : counts
#DATATYPE    : Y
#SIGNALTYPE  : EDS
#XLABEL      : Energy (eV)
#YLABEL      : Counts
#XPERCHAN -eV: 9.99778
#OFFSET   -eV: 1.69135
#CHOFFSET    : 0
#DATE        : 26-Sep-2025
#TIME        : 13:39:00
#OWNER       : Unknown
#ELEVANGLE   : 35
#BEAMKV   -kV: 15
#LIVETIME  -s: 2157.53
#REALTIME  -s: 2370.737
#PROBECUR -nA: 1.21821
##WORKING -mm: 15
##D2STDCMP   : Zr,(Zr:100.0000)
##SIMILAR    : 1.1
#SPECTRUM    :
220,
82130,
127515,
51524,
73351,
73199,
81118,
88011,
94385,
100146,
103765,
107183,
108797,
240278,
579469,
2082217,
219751,
45203,
54521,
38255,
40001,
39850,
40161,
39880,
39938,
39244,
38835,
38495,
38477,
42839,
41712,
36151,
34036,
33029,
32304,
31430,
30627,
29848,
29258,
28644,
27590,
26515,
25767,
25033,
24236,
24269,
25628,
21904,
21221,
20523,
20650,
19777,
18631,
18484,
17478,
16927,
16394,
15877,
15313,
14731,
14107,
14099,
13278,
12818,
12353,
11728,
11337,
10927,
10670,
10271,
9791,
9436,
8810,
8767,
8275,
8016,
7671,
7394,
6937,
6465,
6116,
5802,
5630,
5265,
5010,
4606,
4459,
4146,
3947,
3627,
3334,
3033,
2744,
2592,
2416,
2173,
1907,
1784,
1589,
1348,
1227,
1026,
902,
712,
574,
392,
246,
72,
34,
25,
27,
30,
26,
19,
23,
15,
16,
15,
12,
11,
8,
10,
19,
9,
7,
7,
12,
8,
8,
9,
5,
5,
5,
6,
7,
2,
3,
5,
3,
6,
6,
4,
4,
5,
3,
2,
2,
4,
2,
2,
2,
0,
5,
0,
2,
0,
1,
1,
2,
1,
0,
0,
2,
1,
1,
0,
1,
1,
0,
1,
0,
1,
1,
0,
1,
0,
0,
0,
0,
1,
0,
0,
0,
1,
0,
0,
0,
0,
0,
0,
0,
0,
0,
0,
0,
0,
0,
0,
0,
0,
0,
0,
0,
0,
0,
0,
0,
0,
0,
0,
0,
0,
0,
0,
0,
0,
0,
0,
0,
0,
0,
0,
0,
0,
0,
0,
0,
0,
0,
0,
0,
0,
0,
0,
0,
0,
0,
0,
0,
0,
0,
0,
0,
0,
0,
0,
0,
0,
0,
0,
0,
0,
0,
0,
0,
0,
0,
0,
0,
0,
0,
0,
0,
0,
0,
0,
0,
0,
0,
0,
0,
0,
0,
0,
0,
0,
0,
0,
0,
0,
0,
0,
0,
0,
0,
0,
0,
0,
0,
0,
0,
0,
0,
0,
#ENDOFDATA   :