File: N132962/Quantification/MMM1/SPI MM1 Almandine[5][4].msa
#FORMAT      : EMSA/MAS Spectral Data File
#VERSION     : 1.0
#TITLE       : SPI MM1 Almandine[5][all]
#DATE        : 11-MAR-2025
#TIME        : 13:03
#OWNER       : Unknown
#NPOINTS     : 4096
#NCOLUMNS    : 1
#XUNITS      : eV
#YUNITS      : counts
#DATATYPE    : Y
#XPERCHAN    : 9.99778
#OFFSET      : 1.69135
#BEAMKV      : 20
#SIGNALTYPE  : EDS
#ELEVANGLE   : 35
#AZIMANGLE   : 0
#LIVETIME    : 239.8426
#REALTIME    : 255.273
#PROBECUR    : 1.02699
#TAUWIND     : 0
#TDEADLYR    : 0
#TACTLYR     : 0.045
#TALWIND     : 0.025
#CHOFFSET    : 0.0
#XLABEL      : Energy (eV)
#YLABEL      : Counts
#XPOSITION   : 0.43788
#YPOSITION   : -7.81237
#ZPOSITION   : 30.9284
#EDSDET      : SD
##SPECIMEN   : SPI MM1 Almandine[5][all]
##D2STDCMP   : Almandine,(O:38.5719),(Al:10.8416),(Si:16.9275),(Fe:33.6591),4.05
##DET_HASH   : 12273538-fd48-a23f-0a19-f1e6fa85caef
##CALIB_HASH : 6abaa72c-aa41-8738-0be9-f592914732f3
##WORKING    : 15.0 mm
##DET_NAME   : EDAX All
##DET_MODE   : MediumLE
#SPECTRUM    :
24,
168,
9042,
6346,
60242,
15172,
2432,
2936,
3791,
41838,
8885,
31253,
38925,
19451,
2975,
2770,
3094,
2827,
2766,
2727,
2693,
2623,
2527,
2666,
2373,
2404,
9494,
4356,
2342,
3004,
1951,
1966,
1879,
1823,
1688,
1707,
1564,
1574,
1534,
1512,
1421,
1368,
2273,
1398,
1356,
9446,
27288,
1462,
1086,
1182,
4128,
2582,
915,
930,
795,
841,
822,
771,
805,
757,
692,
629,
652,
637,
627,
564,
533,
549,
511,
528,
459,
486,
481,
443,
452,
412,
394,
355,
361,
377,
333,
327,
307,
291,
303,
300,
269,
264,
274,
280,
199,
229,
227,
192,
195,
160,
190,
188,
139,
150,
143,
128,
134,
117,
120,
114,
102,
101,
88,
88,
87,
77,
79,
69,
71,
58,
49,
49,
38,
29,
44,
26,
36,
39,
28,
28,
13,
24,
25,
18,
18,
20,
17,
14,
6,
5,
8,
5,
4,
3,
3,
0,
0,
1,
0,
1,
0,
0,
0,
0,
0,
0,
0,
0,
0,
0,
0,
0,
0,
0,
0,
0,
0,
0,
0,
0,
0,
0,
0,
0,
1,
0,
0,
0,
0,
0,
0,
1,
0,
0,
0,
0,
0,
0,
0,
0,
0,
1,
0,
0,
0,
0,
0,
0,
0,
0,
0,
0,
0,
0,
0,
0,
0,
0,
0,
0,
0,
0,
0,
0,
0,
0,
0,
0,
0,
0,
0,
0,
1,
0,
0,
0,
0,
0,
0,
0,
0,
0,
0,
0,
0,
0,
0,
0,
0,
0,
0,
0,
0,
0,
0,
0,
0,
0,
0,
0,
0,
0,
0,
0,
0,
0,
0,
0,
0,
0,
0,
0,
0,
0,
0,
0,
0,
0,
0,
0,
0,
0,
0,
0,
0,
0,
0,
0,
0,
0,
0,
0,
0,
0,
0,
0,
0,
0,
0,
0,
0,
0,
0,
0,
0,
0,
0,
0,
#ENDOFDATA   :