File: N132962/Quantification/MMM1/SPI MM1 Chromite[5][4].msa
#FORMAT      : EMSA/MAS Spectral Data File
#VERSION     : 1.0
#TITLE       : SPI MM1dup Chromite[5][all]
#DATE        : 12-MAR-2025
#TIME        : 14:14
#OWNER       : Unknown
#NPOINTS     : 4096
#NCOLUMNS    : 1
#XUNITS      : eV
#YUNITS      : counts
#DATATYPE    : Y
#XPERCHAN    : 9.99778
#OFFSET      : 1.69135
#BEAMKV      : 20
#SIGNALTYPE  : EDS
#ELEVANGLE   : 35
#AZIMANGLE   : 0
#LIVETIME    : 239.786
#REALTIME    : 256.168
#PROBECUR    : 1.02867
#TAUWIND     : 0
#TDEADLYR    : 0
#TACTLYR     : 0.045
#TALWIND     : 0.025
#CHOFFSET    : 0.0
#XLABEL      : Energy (eV)
#YLABEL      : Counts
#XPOSITION   : 4.21453
#YPOSITION   : -0.23224
#ZPOSITION   : 31.03608
#EDSDET      : SD
##SPECIMEN   : SPI MM1dup Chromite[5][all]
##DET_HASH   : 12273538-fd48-a23f-0a19-f1e6fa85caef
##CALIB_HASH : 6abaa72c-aa41-8738-0be9-f592914732f3
##WORKING    : 15.0 mm
##DET_NAME   : EDAX All
##DET_MODE   : MediumLE
#SPECTRUM    :
38,
222,
9661,
10701,
83527,
7356,
2542,
2979,
3697,
57709,
7962,
27648,
3578,
3749,
3487,
3305,
3448,
3413,
3320,
3237,
3214,
2994,
3046,
3006,
2885,
2701,
2990,
2525,
2525,
2319,
2381,
2198,
2414,
2167,
2099,
2124,
1999,
2086,
22180,
58019,
1931,
1755,
7760,
5851,
1332,
5512,
14944,
1327,
1242,
1377,
2690,
1858,
1022,
1156,
1007,
920,
898,
882,
806,
847,
786,
772,
765,
697,
691,
633,
662,
569,
610,
562,
565,
547,
522,
528,
497,
514,
469,
478,
457,
400,
401,
410,
382,
361,
365,
312,
298,
323,
293,
278,
250,
234,
258,
227,
220,
226,
207,
182,
196,
184,
160,
155,
132,
134,
130,
132,
106,
117,
120,
131,
102,
77,
88,
90,
76,
63,
74,
66,
44,
48,
58,
70,
50,
42,
37,
34,
35,
35,
34,
22,
24,
23,
12,
9,
14,
18,
16,
6,
4,
4,
3,
3,
3,
1,
1,
0,
1,
1,
0,
0,
0,
0,
0,
0,
0,
0,
1,
0,
0,
0,
0,
0,
0,
0,
0,
1,
0,
0,
0,
1,
0,
0,
0,
0,
0,
0,
0,
0,
0,
0,
0,
0,
0,
0,
0,
0,
0,
0,
0,
0,
0,
0,
0,
0,
0,
0,
0,
0,
0,
0,
0,
0,
0,
0,
0,
0,
0,
0,
0,
0,
0,
0,
0,
0,
0,
0,
0,
0,
0,
0,
0,
0,
0,
0,
0,
0,
0,
0,
0,
0,
0,
0,
0,
0,
0,
0,
0,
0,
0,
0,
0,
0,
0,
0,
0,
0,
0,
0,
0,
0,
0,
0,
0,
0,
0,
0,
0,
0,
0,
0,
0,
0,
0,
0,
0,
0,
0,
0,
0,
0,
0,
0,
0,
0,
0,
0,
0,
0,
0,
0,
0,
0,
0,
0,
0,
0,
0,
0,
0,
0,
0,
0,
0,
0,
#ENDOFDATA   :