File: N132962/Quantification/MMM1/SPI MM1 Calcite[0][4].msa
#FORMAT      : EMSA/MAS Spectral Data File
#VERSION     : 1.0
#TITLE       : SPI MM1 Calcite[0][all]
#DATE        : 11-MAR-2025
#TIME        : 14:11
#OWNER       : Unknown
#NPOINTS     : 4096
#NCOLUMNS    : 1
#XUNITS      : eV
#YUNITS      : counts
#DATATYPE    : Y
#XPERCHAN    : 9.99778
#OFFSET      : 1.69135
#BEAMKV      : 20
#SIGNALTYPE  : EDS
#ELEVANGLE   : 35
#AZIMANGLE   : 0
#LIVETIME    : 239.791
#REALTIME    : 251.95
#PROBECUR    : 1.02902
#TAUWIND     : 0
#TDEADLYR    : 0
#TACTLYR     : 0.045
#TALWIND     : 0.025
#CHOFFSET    : 0.0
#XLABEL      : Energy (eV)
#YLABEL      : Counts
#XPOSITION   : 0.2767
#YPOSITION   : -2.60628
#ZPOSITION   : 30.9284
#EDSDET      : SD
##SPECIMEN   : SPI MM1 Calcite[0][all]
##D2STDCMP   : Calcite,(C:12.0003),(O:47.9565),(Ca:40.0432),5.0
##DET_HASH   : 12273538-fd48-a23f-0a19-f1e6fa85caef
##CALIB_HASH : 6abaa72c-aa41-8738-0be9-f592914732f3
##WORKING    : 15.0 mm
##DET_NAME   : EDAX All
##DET_MODE   : MediumLE
#SPECTRUM    :
25,
275,
38588,
2855,
22891,
1608,
2155,
2624,
3005,
3489,
3822,
4015,
4246,
4435,
5650,
3613,
3822,
3383,
3320,
3037,
2939,
2927,
2717,
2700,
2481,
3362,
102564,
34418,
6417,
16601,
1641,
1485,
1414,
1399,
1381,
1359,
1213,
1201,
1227,
1166,
1199,
1155,
1162,
1110,
1060,
1017,
1019,
971,
861,
893,
828,
887,
822,
976,
750,
796,
694,
684,
648,
660,
596,
606,
540,
522,
541,
559,
481,
455,
487,
475,
413,
469,
378,
392,
351,
371,
322,
362,
320,
330,
299,
291,
307,
292,
250,
244,
223,
223,
187,
213,
186,
188,
155,
184,
160,
161,
172,
137,
156,
129,
122,
110,
112,
110,
92,
98,
81,
85,
79,
62,
62,
67,
67,
70,
48,
58,
45,
43,
49,
31,
29,
27,
30,
36,
17,
23,
16,
17,
10,
14,
19,
7,
14,
8,
4,
6,
12,
5,
2,
1,
1,
2,
0,
0,
1,
0,
0,
0,
0,
0,
1,
0,
0,
0,
0,
0,
0,
0,
0,
0,
0,
0,
0,
0,
0,
0,
0,
0,
0,
0,
0,
0,
0,
0,
0,
1,
0,
0,
0,
0,
0,
1,
0,
0,
0,
0,
0,
0,
0,
0,
0,
0,
0,
0,
0,
0,
0,
0,
0,
0,
0,
0,
0,
0,
0,
0,
0,
0,
0,
0,
0,
0,
0,
0,
0,
0,
0,
0,
0,
0,
0,
0,
0,
0,
0,
0,
0,
0,
0,
0,
0,
0,
0,
0,
0,
0,
0,
0,
0,
0,
0,
0,
0,
0,
0,
0,
0,
0,
0,
0,
0,
0,
0,
0,
0,
0,
0,
0,
0,
0,
0,
0,
0,
0,
0,
0,
0,
0,
0,
0,
0,
0,
0,
0,
0,
0,
0,
0,
0,
0,
0,
0,
0,
0,
0,
0,
0,
0,
0,
0,
0,
0,
0,
0,
#ENDOFDATA   :