File: N132962/Quantification/MMM1/SPI MM1 Almandine[6][4].msa
#FORMAT      : EMSA/MAS Spectral Data File
#VERSION     : 1.0
#TITLE       : SPI MM1 Almandine[6][all]
#DATE        : 11-MAR-2025
#TIME        : 13:04
#OWNER       : Unknown
#NPOINTS     : 4096
#NCOLUMNS    : 1
#XUNITS      : eV
#YUNITS      : counts
#DATATYPE    : Y
#XPERCHAN    : 9.99778
#OFFSET      : 1.69135
#BEAMKV      : 20
#SIGNALTYPE  : EDS
#ELEVANGLE   : 35
#AZIMANGLE   : 0
#LIVETIME    : 239.84
#REALTIME    : 255.272
#PROBECUR    : 1.02699
#TAUWIND     : 0
#TDEADLYR    : 0
#TACTLYR     : 0.045
#TALWIND     : 0.025
#CHOFFSET    : 0.0
#XLABEL      : Energy (eV)
#YLABEL      : Counts
#XPOSITION   : 0.35175
#YPOSITION   : -7.84719
#ZPOSITION   : 30.9284
#EDSDET      : SD
##SPECIMEN   : SPI MM1 Almandine[6][all]
##D2STDCMP   : Almandine,(O:38.5719),(Al:10.8416),(Si:16.9275),(Fe:33.6591),4.05
##DET_HASH   : 12273538-fd48-a23f-0a19-f1e6fa85caef
##CALIB_HASH : 6abaa72c-aa41-8738-0be9-f592914732f3
##WORKING    : 15.0 mm
##DET_NAME   : EDAX All
##DET_MODE   : MediumLE
#SPECTRUM    :
30,
189,
8955,
6317,
60064,
15150,
2532,
2937,
3790,
41993,
8727,
31118,
39005,
19535,
2845,
2677,
3050,
2785,
2780,
2809,
2653,
2667,
2663,
2522,
2410,
2499,
9314,
4413,
2431,
3089,
1954,
1830,
1995,
1933,
1726,
1662,
1590,
1454,
1485,
1547,
1359,
1359,
2279,
1345,
1301,
9595,
27368,
1466,
1058,
1213,
4024,
2553,
912,
895,
893,
803,
837,
724,
762,
684,
691,
671,
650,
630,
609,
575,
537,
568,
532,
501,
518,
490,
468,
433,
435,
428,
408,
394,
350,
373,
335,
334,
306,
292,
303,
255,
276,
240,
232,
227,
235,
210,
212,
194,
176,
176,
176,
151,
169,
132,
126,
143,
133,
112,
142,
112,
112,
93,
79,
72,
75,
75,
76,
52,
61,
59,
50,
60,
60,
42,
45,
36,
32,
32,
32,
25,
34,
27,
15,
18,
22,
12,
17,
18,
10,
4,
3,
5,
2,
6,
6,
0,
1,
0,
1,
0,
0,
0,
0,
0,
0,
1,
0,
0,
0,
0,
0,
0,
0,
0,
0,
0,
0,
0,
0,
0,
0,
0,
0,
0,
0,
0,
0,
0,
0,
0,
0,
0,
0,
0,
0,
0,
0,
0,
0,
0,
0,
0,
0,
0,
0,
0,
0,
0,
0,
0,
0,
0,
0,
0,
0,
0,
0,
0,
0,
0,
0,
0,
0,
0,
0,
0,
0,
0,
0,
0,
0,
0,
0,
0,
0,
0,
0,
0,
0,
0,
0,
0,
0,
0,
0,
0,
0,
0,
0,
0,
0,
0,
0,
0,
0,
0,
0,
0,
0,
0,
0,
0,
0,
0,
0,
0,
0,
0,
0,
0,
0,
0,
0,
0,
0,
0,
0,
0,
0,
0,
0,
0,
0,
0,
0,
0,
0,
0,
0,
0,
0,
0,
0,
0,
0,
0,
0,
0,
0,
0,
0,
0,
0,
0,
0,
0,
0,
0,
#ENDOFDATA   :