File: N132962/Quantification/MMM1/SPI MM1 Albite[2][4].msa
#FORMAT      : EMSA/MAS Spectral Data File
#VERSION     : 1.0
#TITLE       : SPI MM1 Albite[2][all]
#DATE        : 11-MAR-2025
#TIME        : 12:50
#OWNER       : Unknown
#NPOINTS     : 4096
#NCOLUMNS    : 1
#XUNITS      : eV
#YUNITS      : counts
#DATATYPE    : Y
#XPERCHAN    : 9.99778
#OFFSET      : 1.69135
#BEAMKV      : 20
#SIGNALTYPE  : EDS
#ELEVANGLE   : 35
#AZIMANGLE   : 0
#LIVETIME    : 239.848
#REALTIME    : 255.981
#PROBECUR    : 1.02699
#TAUWIND     : 0
#TDEADLYR    : 0
#TACTLYR     : 0.045
#TALWIND     : 0.025
#CHOFFSET    : 0.0
#XLABEL      : Energy (eV)
#YLABEL      : Counts
#XPOSITION   : 3.42271
#YPOSITION   : -7.11557
#ZPOSITION   : 30.9284
#EDSDET      : SD
##SPECIMEN   : SPI MM1 Albite[2][all]
##D2STDCMP   : Albite,(O:48.8112),(Na:8.7674),(Al:10.2897),(Si:32.1316)
##DET_HASH   : 12273538-fd48-a23f-0a19-f1e6fa85caef
##CALIB_HASH : 6abaa72c-aa41-8738-0be9-f592914732f3
##WORKING    : 15.0 mm
##DET_NAME   : EDAX All
##DET_MODE   : MediumLE
#SPECTRUM    :
21,
214,
7900,
6342,
68008,
2189,
2755,
14113,
5662,
3807,
9505,
33442,
73825,
34926,
2115,
2057,
2765,
2175,
2232,
2100,
2255,
2127,
1962,
2397,
2364,
2095,
1973,
1756,
1643,
1579,
1543,
1479,
1323,
1363,
1314,
1324,
1238,
1214,
1135,
1170,
1081,
1058,
1022,
994,
952,
920,
998,
820,
790,
779,
735,
706,
754,
704,
644,
628,
652,
632,
606,
563,
536,
497,
484,
484,
467,
465,
436,
403,
402,
413,
354,
362,
354,
338,
320,
329,
308,
275,
253,
302,
277,
242,
232,
205,
219,
195,
192,
205,
185,
185,
190,
164,
161,
137,
115,
146,
115,
98,
118,
115,
115,
94,
72,
85,
95,
88,
82,
77,
59,
68,
64,
42,
55,
47,
34,
46,
43,
43,
39,
27,
34,
39,
27,
24,
24,
20,
15,
15,
15,
7,
10,
9,
6,
13,
6,
4,
9,
5,
4,
1,
0,
4,
1,
0,
1,
0,
0,
0,
0,
0,
0,
0,
0,
0,
0,
0,
0,
0,
0,
0,
0,
0,
0,
0,
0,
0,
0,
0,
0,
0,
0,
0,
0,
0,
0,
0,
0,
0,
0,
0,
0,
0,
0,
0,
0,
0,
0,
0,
0,
0,
0,
0,
0,
0,
0,
0,
0,
0,
0,
0,
0,
0,
0,
0,
0,
0,
0,
0,
0,
0,
0,
0,
0,
0,
0,
0,
0,
0,
0,
0,
0,
0,
0,
0,
0,
0,
0,
0,
0,
0,
0,
0,
0,
0,
0,
0,
0,
0,
0,
0,
0,
0,
0,
0,
0,
0,
0,
0,
0,
0,
0,
0,
0,
0,
0,
0,
0,
0,
0,
0,
0,
0,
0,
0,
0,
0,
0,
0,
0,
0,
0,
0,
0,
0,
0,
0,
0,
0,
0,
0,
0,
0,
0,
0,
0,
0,
0,
0,
0,
0,
0,
0,
0,
0,
#ENDOFDATA   :