File: N132962/Quantification/MMM1/SPI MM1 Galena[7][4].msa
#FORMAT      : EMSA/MAS Spectral Data File
#VERSION     : 1.0
#TITLE       : SPI MM1dup Galena[7][all]
#DATE        : 12-MAR-2025
#TIME        : 16:02
#OWNER       : Unknown
#NPOINTS     : 4096
#NCOLUMNS    : 1
#XUNITS      : eV
#YUNITS      : counts
#DATATYPE    : Y
#XPERCHAN    : 9.99778
#OFFSET      : 1.69135
#BEAMKV      : 20
#SIGNALTYPE  : EDS
#ELEVANGLE   : 35
#AZIMANGLE   : 0
#LIVETIME    : 239.839
#REALTIME    : 269.096
#PROBECUR    : 1.02695
#TAUWIND     : 0
#TDEADLYR    : 0
#TACTLYR     : 0.045
#TALWIND     : 0.025
#CHOFFSET    : 0.0
#XLABEL      : Energy (eV)
#YLABEL      : Counts
#XPOSITION   : -5.62405
#YPOSITION   : 1.90576
#ZPOSITION   : 31.03608
#EDSDET      : SD
##SPECIMEN   : SPI MM1dup Galena[7][all]
##DET_HASH   : 12273538-fd48-a23f-0a19-f1e6fa85caef
##CALIB_HASH : 6abaa72c-aa41-8738-0be9-f592914732f3
##WORKING    : 15.0 mm
##DET_NAME   : EDAX All
##DET_MODE   : MediumLE
#SPECTRUM    :
25,
1651,
17791,
4568,
10145,
9762,
7920,
8173,
9166,
9719,
10646,
11169,
11872,
25086,
11660,
11992,
53867,
224324,
35162,
12687,
5216,
5828,
7429,
5644,
5221,
5461,
5360,
5391,
5147,
5252,
5328,
5281,
5279,
5511,
5901,
5249,
5252,
4996,
4981,
4902,
4840,
4780,
4625,
4611,
4569,
4620,
4882,
4410,
4272,
4097,
4137,
3895,
3923,
3881,
3847,
3643,
3470,
3390,
3330,
3421,
3212,
3165,
3159,
3016,
2944,
3333,
3396,
2654,
2635,
2554,
2547,
2569,
2485,
2451,
3741,
15287,
8255,
2283,
2069,
2002,
1902,
1902,
1839,
1696,
1682,
1587,
1659,
1792,
1716,
2457,
6831,
2868,
1589,
1554,
1168,
1139,
992,
1085,
896,
896,
859,
878,
793,
787,
812,
1142,
986,
762,
749,
652,
566,
536,
463,
494,
491,
410,
428,
401,
388,
333,
317,
358,
278,
282,
253,
239,
235,
201,
174,
176,
178,
148,
125,
124,
135,
92,
91,
68,
62,
35,
40,
23,
19,
9,
9,
7,
3,
4,
5,
5,
8,
4,
7,
2,
7,
3,
1,
7,
3,
3,
2,
1,
1,
0,
1,
3,
3,
3,
1,
2,
1,
3,
1,
0,
2,
0,
5,
0,
2,
4,
1,
2,
2,
1,
1,
1,
0,
1,
0,
1,
1,
0,
2,
1,
2,
0,
0,
0,
0,
2,
0,
1,
1,
1,
0,
0,
1,
0,
0,
1,
0,
1,
0,
1,
1,
0,
0,
1,
0,
0,
0,
0,
0,
1,
0,
0,
1,
0,
0,
0,
0,
0,
0,
0,
0,
0,
0,
0,
0,
0,
0,
0,
0,
0,
0,
0,
0,
0,
0,
0,
0,
0,
0,
0,
0,
0,
0,
0,
0,
0,
0,
0,
0,
0,
0,
0,
0,
0,
0,
0,
0,
0,
0,
0,
0,
0,
0,
0,
0,
0,
0,
0,
0,
0,
0,
0,
0,
0,
0,
0,
0,
0,
0,
0,
#ENDOFDATA   :