File: N132962/Quantification/MMM1/SPI MM1 Fluorapatite[6][4].msa
#FORMAT      : EMSA/MAS Spectral Data File
#VERSION     : 1.0
#TITLE       : SPI MM1 Fluorapatite[6][all]
#DATE        : 11-MAR-2025
#TIME        : 14:43
#OWNER       : Unknown
#NPOINTS     : 4096
#NCOLUMNS    : 1
#XUNITS      : eV
#YUNITS      : counts
#DATATYPE    : Y
#XPERCHAN    : 9.99778
#OFFSET      : 1.69135
#BEAMKV      : 20
#SIGNALTYPE  : EDS
#ELEVANGLE   : 35
#AZIMANGLE   : 0
#LIVETIME    : 239.885
#REALTIME    : 255.656
#PROBECUR    : 1.02809
#TAUWIND     : 0
#TDEADLYR    : 0
#TACTLYR     : 0.045
#TALWIND     : 0.025
#CHOFFSET    : 0.0
#XLABEL      : Energy (eV)
#YLABEL      : Counts
#XPOSITION   : -2.68136
#YPOSITION   : 1.89125
#ZPOSITION   : 30.9284
#EDSDET      : SD
##SPECIMEN   : SPI MM1 Fluorapatite[6][all]
##D2STDCMP   : Fluorapatite,(O:35.868),(F:3.5492),(P:23.146),(Ca:37.4368)
##DET_HASH   : 12273538-fd48-a23f-0a19-f1e6fa85caef
##CALIB_HASH : 6abaa72c-aa41-8738-0be9-f592914732f3
##WORKING    : 15.0 mm
##DET_NAME   : EDAX All
##DET_MODE   : MediumLE
#SPECTRUM    :
21,
251,
17662,
3146,
20925,
6401,
2841,
3422,
3827,
4232,
4652,
4975,
5500,
7574,
63600,
18850,
4215,
3614,
3424,
3088,
3053,
2940,
2951,
2816,
2718,
3541,
99164,
33103,
6574,
16465,
1963,
1664,
1668,
1824,
1683,
1776,
1669,
1552,
1615,
1477,
1506,
1613,
1411,
1318,
1215,
1234,
1272,
1125,
1091,
1092,
1013,
943,
1014,
1111,
914,
922,
815,
796,
755,
778,
753,
718,
672,
695,
599,
609,
605,
591,
557,
511,
561,
516,
528,
473,
482,
430,
438,
375,
439,
417,
376,
355,
331,
310,
354,
291,
298,
297,
256,
262,
268,
209,
212,
209,
210,
196,
192,
166,
171,
141,
145,
154,
152,
118,
120,
116,
101,
97,
96,
85,
83,
78,
86,
76,
74,
58,
45,
58,
47,
36,
57,
49,
33,
41,
42,
23,
27,
24,
21,
22,
16,
18,
9,
9,
14,
15,
7,
4,
6,
3,
3,
1,
3,
1,
0,
0,
0,
0,
0,
0,
1,
0,
0,
0,
0,
1,
0,
1,
0,
0,
0,
0,
0,
0,
0,
0,
0,
0,
0,
0,
0,
0,
0,
0,
0,
0,
0,
0,
0,
0,
0,
0,
0,
0,
0,
0,
0,
0,
0,
0,
0,
0,
0,
0,
0,
0,
0,
0,
0,
0,
0,
0,
0,
0,
0,
0,
0,
0,
0,
0,
0,
0,
0,
0,
0,
0,
0,
0,
0,
0,
0,
0,
0,
0,
0,
0,
0,
0,
0,
0,
0,
0,
0,
0,
0,
0,
0,
0,
0,
0,
0,
0,
0,
0,
0,
0,
0,
0,
0,
0,
0,
0,
0,
0,
0,
0,
0,
0,
0,
0,
0,
0,
0,
0,
0,
0,
0,
0,
0,
0,
0,
0,
0,
0,
0,
0,
0,
0,
0,
0,
0,
0,
0,
0,
0,
0,
0,
0,
0,
0,
0,
0,
0,
0,
#ENDOFDATA   :