File: N132962/Quantification/MMM1/SPI MM1 Anhydrite[7][4].msa
#FORMAT      : EMSA/MAS Spectral Data File
#VERSION     : 1.0
#TITLE       : SPI MM1 Anhydrite[7][all]
#DATE        : 11-MAR-2025
#TIME        : 13:52
#OWNER       : Unknown
#NPOINTS     : 4096
#NCOLUMNS    : 1
#XUNITS      : eV
#YUNITS      : counts
#DATATYPE    : Y
#XPERCHAN    : 9.99778
#OFFSET      : 1.69135
#BEAMKV      : 20
#SIGNALTYPE  : EDS
#ELEVANGLE   : 35
#AZIMANGLE   : 0
#LIVETIME    : 239.8962
#REALTIME    : 255.0767
#PROBECUR    : 1.02902
#TAUWIND     : 0
#TDEADLYR    : 0
#TACTLYR     : 0.045
#TALWIND     : 0.025
#CHOFFSET    : 0.0
#XLABEL      : Energy (eV)
#YLABEL      : Counts
#XPOSITION   : 4.99742
#YPOSITION   : -5.03999
#ZPOSITION   : 30.9284
#EDSDET      : SD
##SPECIMEN   : SPI MM1 Anhydrite[7][all]
##D2STDCMP   : Anhydrite,(O:47.0085),(S:23.5529),(Ca:29.4387),5.0
##DET_HASH   : 12273538-fd48-a23f-0a19-f1e6fa85caef
##CALIB_HASH : 6abaa72c-aa41-8738-0be9-f592914732f3
##WORKING    : 15.0 mm
##DET_NAME   : EDAX All
##DET_MODE   : MediumLE
#SPECTRUM    :
29,
694,
11686,
3237,
30600,
2205,
2592,
2887,
3576,
4053,
4483,
4706,
5000,
7144,
6080,
4582,
49491,
42630,
7088,
2706,
2802,
2623,
2611,
2623,
2462,
3036,
71297,
24372,
4949,
12264,
1826,
1582,
1576,
1800,
1519,
1467,
1466,
1419,
1381,
1348,
1277,
1258,
1245,
1391,
1153,
1112,
1162,
1057,
996,
983,
968,
879,
939,
969,
821,
829,
800,
768,
759,
686,
676,
615,
626,
630,
604,
591,
571,
565,
519,
507,
508,
470,
431,
437,
417,
411,
412,
385,
393,
363,
355,
338,
312,
317,
308,
251,
245,
258,
220,
239,
245,
218,
180,
209,
172,
178,
168,
181,
168,
141,
161,
159,
142,
118,
120,
96,
101,
101,
93,
90,
98,
82,
80,
63,
72,
58,
64,
53,
56,
45,
33,
44,
38,
37,
24,
39,
30,
33,
24,
15,
17,
16,
14,
18,
14,
7,
7,
8,
13,
5,
2,
3,
1,
0,
0,
0,
0,
0,
0,
0,
0,
0,
0,
0,
0,
0,
1,
0,
0,
0,
0,
0,
0,
0,
0,
0,
0,
1,
1,
0,
0,
0,
0,
0,
0,
0,
0,
0,
0,
0,
0,
0,
0,
0,
1,
0,
0,
0,
0,
0,
0,
0,
0,
0,
0,
0,
0,
0,
0,
0,
0,
0,
0,
0,
0,
0,
0,
0,
0,
0,
0,
0,
0,
0,
0,
0,
0,
0,
0,
0,
0,
0,
0,
0,
0,
0,
0,
0,
0,
0,
0,
0,
0,
0,
0,
0,
0,
0,
0,
0,
0,
0,
0,
0,
0,
0,
0,
0,
0,
0,
0,
0,
0,
0,
0,
0,
0,
0,
0,
0,
0,
0,
0,
0,
0,
0,
0,
0,
0,
0,
0,
0,
0,
0,
0,
0,
0,
0,
0,
0,
0,
0,
0,
0,
0,
0,
0,
0,
0,
0,
0,
0,
0,
0,
#ENDOFDATA   :