File: N132962/Quantification/MMM1/SPI MM1 Chlorite[7][4].msa
#FORMAT      : EMSA/MAS Spectral Data File
#VERSION     : 1.0
#TITLE       : SPI MM1dup Chlorite[7][all]
#DATE        : 12-MAR-2025
#TIME        : 14:26
#OWNER       : Unknown
#NPOINTS     : 4096
#NCOLUMNS    : 1
#XUNITS      : eV
#YUNITS      : counts
#DATATYPE    : Y
#XPERCHAN    : 9.99778
#OFFSET      : 1.69135
#BEAMKV      : 20
#SIGNALTYPE  : EDS
#ELEVANGLE   : 35
#AZIMANGLE   : 0
#LIVETIME    : 239.7522
#REALTIME    : 254.576
#PROBECUR    : 1.02867
#TAUWIND     : 0
#TDEADLYR    : 0
#TACTLYR     : 0.045
#TALWIND     : 0.025
#CHOFFSET    : 0.0
#XLABEL      : Energy (eV)
#YLABEL      : Counts
#XPOSITION   : 6.59435
#YPOSITION   : 0.08379
#ZPOSITION   : 31.03608
#EDSDET      : SD
##SPECIMEN   : SPI MM1dup Chlorite[7][all]
##DET_HASH   : 12273538-fd48-a23f-0a19-f1e6fa85caef
##CALIB_HASH : 6abaa72c-aa41-8738-0be9-f592914732f3
##WORKING    : 15.0 mm
##DET_NAME   : EDAX All
##DET_MODE   : MediumLE
#SPECTRUM    :
21,
213,
8723,
7523,
80941,
4135,
2696,
3169,
4707,
152413,
6430,
22121,
28374,
14480,
2164,
2161,
2514,
2240,
2351,
2187,
2161,
2166,
1971,
1992,
1798,
1760,
1720,
1675,
1587,
1411,
1449,
1481,
1381,
1331,
1280,
1230,
1190,
1180,
1925,
3224,
1007,
1029,
1260,
1139,
881,
1900,
4025,
851,
800,
742,
1134,
892,
655,
872,
720,
604,
592,
624,
566,
614,
525,
498,
454,
443,
425,
416,
412,
379,
369,
378,
353,
336,
346,
307,
320,
294,
277,
258,
274,
250,
245,
217,
225,
210,
208,
184,
198,
191,
186,
176,
150,
152,
146,
147,
134,
120,
109,
98,
85,
107,
109,
93,
76,
85,
86,
79,
56,
67,
53,
52,
67,
49,
41,
51,
46,
45,
42,
38,
37,
37,
24,
28,
26,
27,
21,
17,
18,
16,
22,
10,
19,
8,
7,
11,
7,
5,
4,
4,
5,
2,
2,
1,
0,
0,
0,
1,
0,
0,
0,
0,
0,
0,
0,
0,
0,
0,
0,
0,
0,
0,
0,
0,
0,
0,
0,
0,
0,
0,
0,
0,
0,
0,
0,
0,
0,
0,
0,
0,
1,
0,
0,
0,
0,
0,
0,
0,
0,
0,
0,
0,
0,
0,
0,
0,
0,
0,
0,
0,
0,
0,
0,
0,
0,
0,
0,
0,
0,
0,
0,
0,
0,
0,
0,
0,
0,
0,
0,
0,
0,
0,
0,
0,
0,
0,
0,
0,
0,
0,
0,
0,
0,
0,
0,
0,
0,
0,
0,
0,
0,
0,
0,
0,
1,
0,
0,
0,
0,
0,
0,
0,
0,
0,
0,
0,
0,
0,
0,
0,
0,
0,
0,
0,
0,
0,
0,
0,
0,
0,
0,
0,
0,
0,
0,
0,
0,
0,
0,
0,
0,
0,
0,
0,
0,
0,
0,
0,
0,
0,
0,
0,
0,
0,
0,
0,
#ENDOFDATA   :