File: N132962/Quantification/MMM1/SPI MM1 Albite[5][4].msa
#FORMAT      : EMSA/MAS Spectral Data File
#VERSION     : 1.0
#TITLE       : SPI MM1 Albite[5][all]
#DATE        : 11-MAR-2025
#TIME        : 12:54
#OWNER       : Unknown
#NPOINTS     : 4096
#NCOLUMNS    : 1
#XUNITS      : eV
#YUNITS      : counts
#DATATYPE    : Y
#XPERCHAN    : 9.99778
#OFFSET      : 1.69135
#BEAMKV      : 20
#SIGNALTYPE  : EDS
#ELEVANGLE   : 35
#AZIMANGLE   : 0
#LIVETIME    : 239.782
#REALTIME    : 255.919
#PROBECUR    : 1.02699
#TAUWIND     : 0
#TDEADLYR    : 0
#TACTLYR     : 0.045
#TALWIND     : 0.025
#CHOFFSET    : 0.0
#XLABEL      : Energy (eV)
#YLABEL      : Counts
#XPOSITION   : 3.45649
#YPOSITION   : -7.02048
#ZPOSITION   : 30.9284
#EDSDET      : SD
##SPECIMEN   : SPI MM1 Albite[5][all]
##D2STDCMP   : Albite,(O:48.8112),(Na:8.7674),(Al:10.2897),(Si:32.1316)
##DET_HASH   : 12273538-fd48-a23f-0a19-f1e6fa85caef
##CALIB_HASH : 6abaa72c-aa41-8738-0be9-f592914732f3
##WORKING    : 15.0 mm
##DET_NAME   : EDAX All
##DET_MODE   : MediumLE
#SPECTRUM    :
38,
173,
7635,
6525,
67723,
2037,
2765,
14008,
5838,
3636,
9443,
33840,
73946,
34753,
2192,
2133,
2800,
2161,
2108,
2154,
2284,
2103,
1955,
2190,
2305,
2206,
2049,
1907,
1661,
1639,
1519,
1421,
1418,
1396,
1311,
1262,
1239,
1205,
1146,
1175,
1069,
1083,
971,
927,
896,
963,
922,
862,
786,
813,
814,
686,
691,
727,
624,
637,
568,
598,
596,
537,
552,
521,
522,
475,
497,
453,
461,
430,
394,
389,
406,
345,
381,
319,
329,
318,
293,
281,
289,
278,
243,
241,
215,
222,
200,
215,
222,
204,
198,
175,
169,
157,
189,
165,
137,
122,
146,
141,
110,
113,
83,
100,
95,
98,
68,
77,
66,
56,
67,
64,
54,
52,
50,
53,
36,
46,
51,
44,
27,
28,
27,
28,
23,
27,
22,
17,
18,
17,
20,
11,
9,
13,
7,
9,
6,
6,
4,
4,
5,
4,
3,
0,
0,
0,
0,
0,
0,
0,
1,
0,
0,
0,
0,
0,
0,
0,
0,
0,
0,
0,
0,
0,
0,
0,
0,
1,
0,
0,
0,
0,
0,
0,
0,
0,
0,
0,
0,
0,
0,
0,
0,
0,
0,
0,
0,
0,
0,
0,
0,
0,
0,
0,
0,
0,
0,
0,
0,
0,
0,
0,
0,
0,
0,
0,
0,
0,
0,
0,
0,
0,
0,
0,
0,
0,
0,
0,
0,
0,
0,
0,
0,
0,
0,
0,
0,
0,
0,
0,
0,
0,
0,
0,
0,
0,
0,
0,
0,
0,
0,
0,
0,
0,
0,
0,
0,
0,
0,
0,
0,
0,
0,
0,
0,
0,
0,
0,
0,
0,
0,
0,
0,
0,
0,
0,
0,
0,
0,
0,
0,
0,
0,
0,
0,
0,
0,
0,
0,
0,
0,
0,
0,
0,
0,
0,
0,
0,
0,
0,
0,
0,
0,
0,
0,
0,
#ENDOFDATA   :