File: N132962/Quantification/MMM1/SPI MM1 Cryolite[2][4].msa
#FORMAT      : EMSA/MAS Spectral Data File
#VERSION     : 1.0
#TITLE       : SPI MM1dup Cryolite[2][all]
#DATE        : 12-MAR-2025
#TIME        : 13:42
#OWNER       : Unknown
#NPOINTS     : 4096
#NCOLUMNS    : 1
#XUNITS      : eV
#YUNITS      : counts
#DATATYPE    : Y
#XPERCHAN    : 9.99778
#OFFSET      : 1.69135
#BEAMKV      : 20
#SIGNALTYPE  : EDS
#ELEVANGLE   : 35
#AZIMANGLE   : 0
#LIVETIME    : 240.163
#REALTIME    : 258.665
#PROBECUR    : 1.02627
#TAUWIND     : 0
#TDEADLYR    : 0
#TACTLYR     : 0.045
#TALWIND     : 0.025
#CHOFFSET    : 0.0
#XLABEL      : Energy (eV)
#YLABEL      : Counts
#XPOSITION   : -3.92605
#YPOSITION   : -0.56319
#ZPOSITION   : 31.03608
#EDSDET      : SD
##SPECIMEN   : SPI MM1dup Cryolite[2][all]
##D2STDCMP   : Cryolite,(F:54.2963),(Na:32.8517),(Al:12.8519)
##DET_HASH   : 12273538-fd48-a23f-0a19-f1e6fa85caef
##CALIB_HASH : 6abaa72c-aa41-8738-0be9-f592914732f3
##WORKING    : 15.0 mm
##DET_NAME   : EDAX All
##DET_MODE   : MediumLE
#SPECTRUM    :
19,
360,
9934,
4454,
13462,
332135,
2617,
38747,
9850,
2360,
7170,
26553,
3178,
2431,
2152,
2742,
2391,
2338,
2341,
2295,
2154,
2152,
2049,
1909,
1968,
1860,
1766,
1599,
1558,
1544,
1503,
1407,
1417,
1332,
1288,
1300,
1177,
1151,
1161,
1095,
1043,
1006,
969,
952,
894,
827,
928,
786,
803,
787,
719,
741,
703,
670,
678,
598,
606,
606,
546,
564,
519,
468,
453,
496,
423,
380,
424,
418,
385,
370,
360,
339,
370,
332,
337,
307,
267,
302,
275,
274,
253,
239,
203,
230,
208,
202,
200,
188,
198,
179,
154,
143,
172,
126,
130,
134,
114,
109,
120,
113,
96,
90,
81,
80,
67,
67,
72,
57,
58,
47,
50,
53,
49,
51,
40,
43,
48,
30,
38,
30,
25,
25,
23,
9,
13,
16,
8,
19,
14,
9,
5,
6,
10,
6,
11,
11,
3,
6,
0,
2,
4,
4,
1,
0,
1,
0,
0,
0,
0,
0,
0,
0,
0,
0,
0,
0,
2,
0,
0,
0,
0,
0,
0,
0,
0,
0,
0,
0,
0,
0,
0,
0,
0,
0,
0,
0,
0,
0,
0,
0,
0,
0,
0,
0,
0,
0,
0,
0,
0,
0,
0,
0,
0,
0,
0,
0,
0,
0,
0,
0,
0,
0,
0,
0,
0,
0,
0,
0,
0,
0,
0,
0,
0,
0,
0,
0,
0,
0,
0,
0,
0,
0,
0,
0,
0,
0,
0,
0,
0,
0,
0,
0,
0,
0,
0,
0,
0,
0,
0,
0,
0,
0,
0,
0,
0,
0,
0,
0,
0,
0,
0,
0,
0,
0,
0,
0,
0,
0,
0,
0,
0,
0,
0,
0,
0,
0,
0,
0,
0,
0,
0,
0,
0,
0,
0,
0,
0,
0,
0,
0,
0,
0,
0,
0,
0,
0,
0,
0,
0,
0,
0,
0,
0,
0,
#ENDOFDATA   :