File: N132962/Quantification/MMM1/SPI MM1 Kaersutite[7][4].msa
#FORMAT      : EMSA/MAS Spectral Data File
#VERSION     : 1.0
#TITLE       : SPI MM1dup Kaersutite[7][all]
#DATE        : 12-MAR-2025
#TIME        : 16:28
#OWNER       : Unknown
#NPOINTS     : 4096
#NCOLUMNS    : 1
#XUNITS      : eV
#YUNITS      : counts
#DATATYPE    : Y
#XPERCHAN    : 9.99778
#OFFSET      : 1.69135
#BEAMKV      : 20
#SIGNALTYPE  : EDS
#ELEVANGLE   : 35
#AZIMANGLE   : 0
#LIVETIME    : 239.585
#REALTIME    : 254.193
#PROBECUR    : 1.02709
#TAUWIND     : 0
#TDEADLYR    : 0
#TACTLYR     : 0.045
#TALWIND     : 0.025
#CHOFFSET    : 0.0
#XLABEL      : Energy (eV)
#YLABEL      : Counts
#XPOSITION   : -1.61286
#YPOSITION   : 3.60908
#ZPOSITION   : 31.03608
#EDSDET      : SD
##SPECIMEN   : SPI MM1dup Kaersutite[7][all]
##DET_HASH   : 12273538-fd48-a23f-0a19-f1e6fa85caef
##CALIB_HASH : 6abaa72c-aa41-8738-0be9-f592914732f3
##WORKING    : 15.0 mm
##DET_NAME   : EDAX All
##DET_MODE   : MediumLE
#SPECTRUM    :
15,
192,
9530,
5656,
43088,
8733,
2476,
4700,
4215,
53567,
6588,
20334,
41856,
21097,
3114,
2672,
3079,
2742,
2772,
2786,
2632,
2572,
2486,
3006,
4948,
2583,
22295,
8383,
2791,
4820,
1879,
1861,
10414,
2577,
1603,
2717,
1653,
1414,
1453,
1369,
1297,
1266,
1405,
1250,
1175,
4966,
13273,
1194,
1031,
989,
2285,
1577,
838,
910,
831,
753,
742,
709,
701,
662,
657,
652,
636,
578,
572,
554,
515,
503,
529,
478,
422,
475,
448,
426,
399,
384,
396,
361,
365,
375,
348,
305,
267,
282,
250,
277,
264,
246,
218,
235,
219,
205,
195,
178,
167,
160,
147,
169,
147,
153,
138,
133,
118,
107,
91,
91,
88,
91,
86,
76,
73,
61,
52,
63,
62,
51,
40,
59,
44,
30,
36,
38,
44,
36,
39,
19,
15,
13,
26,
17,
19,
10,
8,
9,
7,
13,
2,
9,
9,
4,
4,
3,
0,
0,
0,
1,
1,
0,
2,
0,
0,
0,
0,
0,
0,
0,
0,
0,
0,
0,
1,
0,
0,
0,
0,
0,
0,
0,
0,
0,
0,
0,
0,
0,
1,
0,
0,
0,
0,
1,
0,
0,
0,
0,
0,
0,
0,
0,
0,
0,
0,
0,
0,
0,
0,
0,
0,
0,
0,
0,
0,
0,
0,
1,
0,
0,
0,
0,
0,
0,
0,
0,
0,
0,
0,
0,
0,
0,
0,
0,
0,
0,
0,
0,
0,
0,
0,
0,
0,
0,
0,
0,
0,
0,
0,
0,
0,
0,
0,
0,
0,
0,
0,
0,
0,
0,
0,
0,
0,
0,
0,
0,
0,
0,
0,
0,
0,
0,
0,
0,
0,
0,
0,
0,
0,
0,
0,
0,
0,
0,
0,
0,
0,
0,
0,
0,
0,
0,
0,
0,
0,
0,
0,
0,
0,
0,
0,
0,
0,
0,
0,
0,
0,
0,
#ENDOFDATA   :