File: N132962/Quantification/MMM1/SPI MM1 Hematite[1][4].msa
#FORMAT      : EMSA/MAS Spectral Data File
#VERSION     : 1.0
#TITLE       : SPI MM1dup Hematite[1][all]
#DATE        : 12-MAR-2025
#TIME        : 16:47
#OWNER       : Unknown
#NPOINTS     : 4096
#NCOLUMNS    : 1
#XUNITS      : eV
#YUNITS      : counts
#DATATYPE    : Y
#XPERCHAN    : 9.99778
#OFFSET      : 1.69135
#BEAMKV      : 20
#SIGNALTYPE  : EDS
#ELEVANGLE   : 35
#AZIMANGLE   : 0
#LIVETIME    : 239.797
#REALTIME    : 256.675
#PROBECUR    : 1.026781
#TAUWIND     : 0
#TDEADLYR    : 0
#TACTLYR     : 0.045
#TALWIND     : 0.025
#CHOFFSET    : 0.0
#XLABEL      : Energy (eV)
#YLABEL      : Counts
#XPOSITION   : 3.61642
#YPOSITION   : 4.17553
#ZPOSITION   : 31.03608
#EDSDET      : SD
##SPECIMEN   : SPI MM1dup Hematite[1][all]
##D2STDCMP   : Hematite,(O:30.0574),(Fe:69.9426),5.0
##DET_HASH   : 12273538-fd48-a23f-0a19-f1e6fa85caef
##CALIB_HASH : 6abaa72c-aa41-8738-0be9-f592914732f3
##WORKING    : 15.0 mm
##DET_NAME   : EDAX All
##DET_MODE   : MediumLE
#SPECTRUM    :
27,
314,
11295,
9798,
71102,
55034,
2250,
2431,
2792,
3365,
3827,
4095,
4604,
4769,
4262,
4359,
4185,
4278,
4206,
4187,
4044,
3955,
3843,
3755,
3634,
3526,
3374,
3246,
3299,
3081,
2983,
2851,
2828,
3227,
2657,
2492,
2344,
2435,
2343,
2296,
2221,
2087,
1950,
1990,
2388,
34731,
106428,
2948,
1745,
2297,
13586,
7710,
1275,
1216,
1249,
1115,
1147,
1072,
1070,
1105,
1053,
950,
974,
936,
872,
848,
808,
829,
790,
748,
748,
698,
690,
700,
650,
621,
628,
662,
570,
571,
535,
537,
494,
493,
428,
419,
461,
414,
400,
378,
342,
444,
423,
319,
278,
294,
302,
253,
250,
239,
229,
233,
201,
210,
200,
185,
157,
174,
147,
143,
152,
135,
155,
111,
105,
98,
98,
95,
77,
73,
86,
73,
78,
57,
50,
65,
41,
49,
44,
46,
31,
34,
24,
42,
24,
21,
8,
14,
6,
12,
8,
1,
3,
0,
0,
0,
1,
2,
0,
0,
0,
0,
1,
1,
0,
1,
0,
1,
0,
0,
1,
1,
0,
1,
0,
0,
0,
1,
0,
0,
0,
0,
0,
0,
0,
0,
0,
0,
0,
0,
0,
0,
0,
1,
0,
0,
0,
0,
0,
0,
0,
0,
0,
0,
0,
0,
0,
0,
0,
0,
0,
0,
0,
0,
0,
0,
0,
0,
0,
0,
0,
0,
0,
0,
0,
0,
1,
0,
0,
0,
0,
0,
0,
0,
0,
0,
0,
0,
0,
0,
0,
0,
0,
0,
0,
0,
0,
0,
0,
0,
0,
0,
0,
0,
0,
0,
0,
0,
0,
0,
0,
0,
0,
0,
0,
0,
0,
0,
0,
0,
0,
0,
0,
0,
0,
0,
0,
0,
0,
0,
0,
0,
0,
0,
0,
0,
0,
0,
0,
0,
0,
0,
0,
0,
0,
0,
0,
0,
0,
0,
0,
0,
0,
0,
#ENDOFDATA   :