File: N132962/Quantification/MMM1/SPI MM1 Dolomite[0][4].msa
#FORMAT      : EMSA/MAS Spectral Data File
#VERSION     : 1.0
#TITLE       : SPI MM1dup Dolomite[0][all]
#DATE        : 12-MAR-2025
#TIME        : 15:45
#OWNER       : Unknown
#NPOINTS     : 4096
#NCOLUMNS    : 1
#XUNITS      : eV
#YUNITS      : counts
#DATATYPE    : Y
#XPERCHAN    : 9.99778
#OFFSET      : 1.69135
#BEAMKV      : 20
#SIGNALTYPE  : EDS
#ELEVANGLE   : 35
#AZIMANGLE   : 0
#LIVETIME    : 239.86
#REALTIME    : 250.734
#PROBECUR    : 1.02695
#TAUWIND     : 0
#TDEADLYR    : 0
#TACTLYR     : 0.045
#TALWIND     : 0.025
#CHOFFSET    : 0.0
#XLABEL      : Energy (eV)
#YLABEL      : Counts
#XPOSITION   : -0.09535
#YPOSITION   : 2.0147
#ZPOSITION   : 31.03608
#EDSDET      : SD
##SPECIMEN   : SPI MM1dup Dolomite[0][all]
##DET_HASH   : 12273538-fd48-a23f-0a19-f1e6fa85caef
##CALIB_HASH : 6abaa72c-aa41-8738-0be9-f592914732f3
##WORKING    : 15.0 mm
##DET_NAME   : EDAX All
##DET_MODE   : MediumLE
#SPECTRUM    :
30,
205,
26672,
3599,
35230,
1555,
2149,
2474,
3593,
85625,
2860,
3171,
3304,
3460,
3935,
2858,
2826,
2785,
2632,
2618,
2409,
2314,
2332,
2229,
2073,
2497,
56194,
19225,
3959,
9603,
1501,
1385,
1316,
1224,
1157,
1218,
1145,
1064,
1106,
1000,
980,
968,
946,
943,
934,
961,
1017,
778,
776,
724,
710,
679,
665,
774,
663,
652,
557,
539,
550,
522,
547,
512,
460,
497,
436,
425,
445,
364,
391,
375,
372,
357,
336,
358,
344,
294,
318,
301,
238,
295,
250,
237,
225,
214,
211,
176,
190,
197,
173,
153,
146,
153,
162,
142,
147,
130,
128,
113,
103,
108,
94,
91,
98,
100,
80,
69,
54,
65,
54,
48,
60,
52,
57,
47,
35,
47,
34,
28,
38,
31,
33,
27,
21,
22,
28,
19,
11,
11,
12,
9,
7,
11,
6,
6,
7,
9,
10,
1,
2,
4,
1,
1,
0,
1,
0,
0,
0,
0,
0,
0,
0,
0,
0,
0,
0,
0,
0,
0,
0,
0,
0,
0,
0,
0,
0,
0,
0,
0,
0,
0,
0,
0,
0,
0,
0,
0,
0,
0,
0,
0,
0,
0,
0,
0,
0,
0,
0,
0,
0,
0,
0,
0,
0,
0,
0,
0,
0,
0,
0,
0,
0,
0,
0,
0,
0,
0,
0,
0,
0,
0,
0,
0,
0,
0,
0,
0,
0,
0,
0,
0,
0,
0,
0,
0,
0,
0,
0,
0,
0,
0,
0,
0,
0,
0,
0,
0,
0,
0,
0,
0,
0,
0,
0,
0,
0,
0,
0,
0,
0,
0,
0,
0,
0,
0,
0,
0,
0,
0,
0,
0,
0,
0,
0,
0,
0,
0,
0,
0,
0,
0,
0,
0,
0,
0,
0,
0,
0,
0,
0,
0,
0,
0,
0,
0,
0,
0,
0,
0,
0,
0,
0,
0,
0,
0,
#ENDOFDATA   :