File: N132962/Quantification/MMM1/SPI MM1 Dolomite[3][4].msa
#FORMAT      : EMSA/MAS Spectral Data File
#VERSION     : 1.0
#TITLE       : SPI MM1dup Dolomite[3][all]
#DATE        : 12-MAR-2025
#TIME        : 15:48
#OWNER       : Unknown
#NPOINTS     : 4096
#NCOLUMNS    : 1
#XUNITS      : eV
#YUNITS      : counts
#DATATYPE    : Y
#XPERCHAN    : 9.99778
#OFFSET      : 1.69135
#BEAMKV      : 20
#SIGNALTYPE  : EDS
#ELEVANGLE   : 35
#AZIMANGLE   : 0
#LIVETIME    : 239.88
#REALTIME    : 250.736
#PROBECUR    : 1.02695
#TAUWIND     : 0
#TDEADLYR    : 0
#TACTLYR     : 0.045
#TALWIND     : 0.025
#CHOFFSET    : 0.0
#XLABEL      : Energy (eV)
#YLABEL      : Counts
#XPOSITION   : -0.04171
#YPOSITION   : 2.00952
#ZPOSITION   : 31.03608
#EDSDET      : SD
##SPECIMEN   : SPI MM1dup Dolomite[3][all]
##DET_HASH   : 12273538-fd48-a23f-0a19-f1e6fa85caef
##CALIB_HASH : 6abaa72c-aa41-8738-0be9-f592914732f3
##WORKING    : 15.0 mm
##DET_NAME   : EDAX All
##DET_MODE   : MediumLE
#SPECTRUM    :
31,
199,
26602,
3748,
35005,
1790,
1958,
2492,
3493,
85518,
2846,
3138,
3344,
3437,
4000,
2791,
2900,
2825,
2617,
2633,
2554,
2376,
2318,
2224,
2141,
2529,
55821,
19046,
3944,
9638,
1580,
1353,
1413,
1288,
1177,
1281,
1163,
1126,
1102,
1079,
1009,
1034,
1001,
920,
885,
921,
1016,
810,
794,
759,
748,
725,
728,
755,
651,
606,
605,
598,
529,
532,
520,
483,
507,
496,
434,
404,
405,
401,
376,
347,
357,
382,
319,
280,
324,
311,
305,
282,
290,
265,
266,
228,
194,
223,
211,
170,
208,
199,
189,
173,
189,
170,
142,
132,
128,
144,
120,
99,
96,
100,
107,
80,
84,
90,
76,
80,
70,
74,
62,
53,
57,
53,
48,
38,
30,
40,
30,
40,
38,
31,
28,
24,
16,
11,
15,
27,
17,
15,
19,
22,
14,
12,
9,
9,
5,
10,
5,
3,
1,
3,
1,
2,
1,
0,
1,
0,
0,
0,
0,
0,
0,
0,
0,
0,
0,
0,
0,
0,
0,
0,
0,
0,
0,
0,
0,
0,
0,
0,
0,
0,
0,
0,
0,
0,
0,
0,
0,
0,
0,
0,
0,
0,
0,
0,
0,
0,
0,
0,
0,
0,
0,
0,
0,
0,
0,
0,
0,
0,
0,
0,
0,
0,
0,
0,
0,
0,
0,
0,
0,
0,
0,
0,
0,
0,
0,
0,
0,
0,
0,
0,
0,
0,
0,
0,
0,
0,
0,
0,
0,
0,
0,
0,
0,
0,
0,
0,
0,
0,
0,
0,
0,
0,
0,
0,
0,
0,
0,
0,
0,
0,
0,
0,
0,
0,
0,
0,
0,
0,
0,
0,
0,
0,
0,
0,
0,
0,
0,
0,
0,
0,
0,
0,
0,
0,
0,
0,
0,
0,
0,
0,
0,
0,
0,
0,
0,
0,
0,
0,
0,
0,
0,
0,
0,
0,
#ENDOFDATA   :