File: N132962/Quantification/MMM1/SPI MM1 Kyanite[1][4].msa
#FORMAT      : EMSA/MAS Spectral Data File
#VERSION     : 1.0
#TITLE       : SPI MM1dup Kyanite[1][all]
#DATE        : 12-MAR-2025
#TIME        : 16:11
#OWNER       : Unknown
#NPOINTS     : 4096
#NCOLUMNS    : 1
#XUNITS      : eV
#YUNITS      : counts
#DATATYPE    : Y
#XPERCHAN    : 9.99778
#OFFSET      : 1.69135
#BEAMKV      : 20
#SIGNALTYPE  : EDS
#ELEVANGLE   : 35
#AZIMANGLE   : 0
#LIVETIME    : 239.679
#REALTIME    : 256.492
#PROBECUR    : 1.02709
#TAUWIND     : 0
#TDEADLYR    : 0
#TACTLYR     : 0.045
#TALWIND     : 0.025
#CHOFFSET    : 0.0
#XLABEL      : Energy (eV)
#YLABEL      : Counts
#XPOSITION   : -4.25068
#YPOSITION   : 4.17624
#ZPOSITION   : 31.03608
#EDSDET      : SD
##SPECIMEN   : SPI MM1dup Kyanite[1][all]
##DET_HASH   : 12273538-fd48-a23f-0a19-f1e6fa85caef
##CALIB_HASH : 6abaa72c-aa41-8738-0be9-f592914732f3
##WORKING    : 15.0 mm
##DET_NAME   : EDAX All
##DET_MODE   : MediumLE
#SPECTRUM    :
25,
180,
7588,
6492,
68821,
2105,
2642,
3397,
3871,
4904,
23099,
104862,
32648,
15986,
2526,
2126,
2400,
2099,
2219,
2086,
2113,
2450,
2073,
2372,
1900,
1888,
1688,
1707,
1651,
1609,
1510,
1475,
1464,
1370,
1310,
1257,
1233,
1209,
1134,
1112,
1030,
1051,
986,
936,
908,
926,
1091,
821,
837,
812,
808,
796,
731,
716,
629,
615,
596,
579,
575,
526,
520,
510,
470,
476,
483,
424,
435,
414,
399,
392,
355,
367,
365,
329,
338,
330,
308,
298,
272,
236,
263,
233,
260,
234,
198,
171,
207,
194,
182,
173,
180,
160,
139,
146,
138,
139,
114,
116,
123,
109,
96,
99,
90,
91,
91,
88,
74,
71,
65,
58,
58,
48,
56,
53,
30,
34,
41,
37,
32,
30,
28,
18,
30,
23,
24,
27,
15,
14,
15,
12,
15,
6,
7,
8,
9,
10,
9,
7,
1,
4,
3,
1,
0,
1,
0,
0,
0,
0,
0,
0,
0,
1,
0,
0,
0,
0,
0,
0,
0,
0,
0,
0,
0,
0,
0,
0,
1,
0,
0,
0,
0,
0,
0,
0,
0,
0,
0,
0,
0,
0,
0,
0,
0,
0,
0,
0,
0,
0,
0,
0,
0,
0,
0,
0,
0,
0,
0,
0,
0,
0,
0,
0,
0,
0,
0,
0,
0,
0,
0,
0,
0,
0,
0,
0,
0,
0,
0,
0,
0,
0,
0,
0,
0,
0,
0,
0,
0,
0,
0,
0,
0,
0,
0,
0,
0,
0,
0,
0,
0,
0,
0,
0,
0,
0,
0,
0,
0,
0,
0,
0,
0,
0,
0,
0,
0,
0,
0,
0,
0,
0,
0,
0,
0,
0,
0,
0,
0,
0,
0,
0,
0,
0,
0,
0,
0,
0,
0,
0,
0,
0,
0,
0,
0,
0,
0,
0,
0,
0,
0,
0,
0,
0,
0,
0,
#ENDOFDATA   :