File: N132962/Quantification/MMM1/SPI MM1 Barite[5][4].msa
#FORMAT      : EMSA/MAS Spectral Data File
#VERSION     : 1.0
#TITLE       : SPI MM1 Barite[5][all]
#DATE        : 11-MAR-2025
#TIME        : 13:31
#OWNER       : Unknown
#NPOINTS     : 4096
#NCOLUMNS    : 1
#XUNITS      : eV
#YUNITS      : counts
#DATATYPE    : Y
#XPERCHAN    : 9.99778
#OFFSET      : 1.69135
#BEAMKV      : 20
#SIGNALTYPE  : EDS
#ELEVANGLE   : 35
#AZIMANGLE   : 0
#LIVETIME    : 239.8755
#REALTIME    : 258.922
#PROBECUR    : 1.02853
#TAUWIND     : 0
#TDEADLYR    : 0
#TACTLYR     : 0.045
#TALWIND     : 0.025
#CHOFFSET    : 0.0
#XLABEL      : Energy (eV)
#YLABEL      : Counts
#XPOSITION   : -0.394
#YPOSITION   : -5.07933
#ZPOSITION   : 30.9284
#EDSDET      : SD
##SPECIMEN   : SPI MM1 Barite[5][all]
##DET_HASH   : 12273538-fd48-a23f-0a19-f1e6fa85caef
##CALIB_HASH : 6abaa72c-aa41-8738-0be9-f592914732f3
##WORKING    : 15.0 mm
##DET_NAME   : EDAX All
##DET_MODE   : MediumLE
#SPECTRUM    :
26,
1036,
13778,
8151,
55642,
6097,
5307,
6018,
4418,
4272,
4726,
5288,
5715,
6358,
5527,
5677,
27865,
24632,
7086,
5165,
5200,
4893,
5065,
4818,
4744,
4439,
4355,
4490,
6662,
4619,
4132,
9380,
82840,
4994,
19008,
25929,
6186,
15909,
3205,
4986,
5058,
3857,
3258,
2698,
2311,
2261,
2611,
2235,
2229,
2135,
1999,
2088,
2015,
2165,
1864,
1903,
1757,
1823,
1709,
1723,
1676,
1637,
1542,
1511,
1507,
1483,
1406,
1332,
1365,
1337,
1286,
1270,
1236,
1128,
1123,
1077,
1059,
991,
977,
966,
953,
944,
819,
858,
813,
790,
746,
755,
724,
663,
633,
614,
567,
578,
549,
500,
495,
456,
453,
468,
403,
457,
400,
369,
370,
320,
312,
312,
297,
276,
259,
251,
250,
217,
196,
198,
160,
149,
168,
164,
154,
131,
128,
110,
101,
82,
106,
90,
73,
79,
80,
56,
49,
44,
40,
34,
25,
29,
25,
24,
12,
8,
3,
1,
2,
3,
0,
6,
5,
2,
0,
3,
1,
3,
1,
1,
1,
0,
0,
1,
0,
0,
1,
0,
1,
0,
0,
0,
0,
0,
0,
1,
0,
0,
1,
0,
0,
0,
1,
0,
0,
0,
0,
0,
0,
0,
0,
1,
0,
0,
0,
0,
0,
0,
0,
0,
0,
0,
0,
0,
0,
0,
0,
0,
0,
0,
0,
0,
0,
0,
0,
0,
0,
0,
0,
0,
0,
0,
0,
0,
0,
0,
0,
0,
0,
0,
0,
0,
0,
0,
0,
1,
0,
0,
0,
0,
0,
0,
0,
0,
0,
0,
0,
0,
0,
0,
0,
0,
0,
0,
0,
0,
0,
0,
0,
0,
0,
0,
0,
0,
0,
0,
0,
0,
0,
0,
0,
0,
0,
0,
0,
0,
0,
0,
0,
0,
0,
0,
0,
0,
0,
0,
0,
0,
0,
0,
0,
0,
0,
0,
0,
0,
0,
0,
#ENDOFDATA   :