File: N132962/Quantification/MMM1/SPI MM1 Jadeite[5][4].msa
#FORMAT      : EMSA/MAS Spectral Data File
#VERSION     : 1.0
#TITLE       : SPI MM1dup Jadeite[5][all]
#DATE        : 12-MAR-2025
#TIME        : 16:35
#OWNER       : Unknown
#NPOINTS     : 4096
#NCOLUMNS    : 1
#XUNITS      : eV
#YUNITS      : counts
#DATATYPE    : Y
#XPERCHAN    : 9.99778
#OFFSET      : 1.69135
#BEAMKV      : 20
#SIGNALTYPE  : EDS
#ELEVANGLE   : 35
#AZIMANGLE   : 0
#LIVETIME    : 239.76
#REALTIME    : 255.549
#PROBECUR    : 1.02709
#TAUWIND     : 0
#TDEADLYR    : 0
#TACTLYR     : 0.045
#TALWIND     : 0.025
#CHOFFSET    : 0.0
#XLABEL      : Energy (eV)
#YLABEL      : Counts
#XPOSITION   : 0.87532
#YPOSITION   : 4.38971
#ZPOSITION   : 31.03608
#EDSDET      : SD
##SPECIMEN   : SPI MM1dup Jadeite[5][all]
##D2STDCMP   : Jadeite,(O:47.4904),(Na:11.3733),(Al:13.348),(Si:27.7883),5.0
##DET_HASH   : 12273538-fd48-a23f-0a19-f1e6fa85caef
##CALIB_HASH : 6abaa72c-aa41-8738-0be9-f592914732f3
##WORKING    : 15.0 mm
##DET_NAME   : EDAX All
##DET_MODE   : MediumLE
#SPECTRUM    :
29,
185,
7683,
6280,
66459,
2114,
2835,
18134,
6442,
3749,
10361,
39650,
60556,
28634,
2171,
2073,
2654,
2087,
2202,
2112,
2209,
2028,
1999,
2197,
1871,
2145,
1899,
1775,
1641,
1657,
1483,
1410,
1413,
1402,
1337,
1262,
1255,
1142,
1139,
1117,
1028,
1028,
1010,
950,
975,
970,
951,
787,
807,
762,
773,
690,
688,
740,
699,
583,
568,
610,
574,
516,
488,
527,
473,
515,
454,
487,
399,
399,
426,
349,
350,
366,
373,
324,
301,
299,
320,
293,
267,
281,
240,
260,
235,
246,
221,
184,
210,
175,
198,
168,
137,
160,
149,
149,
134,
124,
137,
125,
116,
103,
94,
65,
75,
94,
88,
67,
65,
64,
63,
57,
60,
54,
54,
53,
32,
39,
42,
36,
22,
33,
38,
35,
24,
22,
11,
19,
30,
16,
13,
13,
10,
10,
9,
12,
4,
3,
5,
5,
4,
4,
1,
1,
0,
0,
0,
0,
0,
0,
0,
1,
1,
0,
1,
0,
0,
0,
0,
0,
0,
0,
0,
0,
0,
0,
0,
0,
0,
0,
0,
0,
0,
0,
0,
0,
0,
0,
0,
0,
0,
0,
0,
0,
0,
0,
0,
0,
0,
0,
0,
0,
0,
0,
0,
0,
0,
0,
0,
0,
0,
0,
0,
0,
0,
0,
0,
0,
0,
0,
0,
0,
0,
0,
0,
0,
0,
0,
0,
0,
0,
0,
0,
0,
0,
0,
0,
0,
0,
0,
0,
0,
0,
0,
0,
0,
0,
0,
0,
0,
0,
0,
0,
0,
0,
0,
0,
0,
0,
0,
0,
0,
0,
0,
0,
0,
0,
0,
0,
0,
0,
0,
0,
0,
0,
0,
0,
0,
0,
0,
0,
0,
0,
0,
0,
0,
0,
0,
0,
0,
0,
0,
0,
0,
0,
0,
0,
0,
0,
0,
0,
0,
0,
0,
0,
0,
#ENDOFDATA   :