File: N132962/Quantification/MMM1/SPI MM1 Bustamite[4][4].msa
#FORMAT      : EMSA/MAS Spectral Data File
#VERSION     : 1.0
#TITLE       : SPI MM1 Bustamite[4][all]
#DATE        : 11-MAR-2025
#TIME        : 14:07
#OWNER       : Unknown
#NPOINTS     : 4096
#NCOLUMNS    : 1
#XUNITS      : eV
#YUNITS      : counts
#DATATYPE    : Y
#XPERCHAN    : 9.99778
#OFFSET      : 1.69135
#BEAMKV      : 20
#SIGNALTYPE  : EDS
#ELEVANGLE   : 35
#AZIMANGLE   : 0
#LIVETIME    : 239.8908
#REALTIME    : 255.724
#PROBECUR    : 1.02902
#TAUWIND     : 0
#TDEADLYR    : 0
#TACTLYR     : 0.045
#TALWIND     : 0.025
#CHOFFSET    : 0.0
#XLABEL      : Energy (eV)
#YLABEL      : Counts
#XPOSITION   : 2.6285
#YPOSITION   : -2.6887
#ZPOSITION   : 30.9284
#EDSDET      : SD
##SPECIMEN   : SPI MM1 Bustamite[4][all]
##D2STDCMP   : Bustamite,(O:38.8357),(Si:22.7243),(Ca:16.2141),(Mn:22.2259),6.0
##DET_HASH   : 12273538-fd48-a23f-0a19-f1e6fa85caef
##CALIB_HASH : 6abaa72c-aa41-8738-0be9-f592914732f3
##WORKING    : 15.0 mm
##DET_NAME   : EDAX All
##DET_MODE   : MediumLE
#SPECTRUM    :
31,
192,
11083,
4959,
41931,
7018,
2434,
3022,
3354,
4671,
4355,
5082,
56551,
27050,
3761,
3174,
3667,
3306,
3145,
3059,
3046,
2881,
2873,
2914,
2797,
3096,
36855,
13321,
3976,
7301,
2175,
1989,
1891,
1893,
1884,
1809,
1701,
1754,
1609,
1633,
1644,
2584,
39740,
4580,
1433,
4193,
14061,
2656,
1095,
1080,
2070,
1500,
983,
978,
960,
991,
876,
909,
820,
777,
767,
850,
808,
769,
696,
678,
628,
587,
643,
589,
534,
552,
529,
475,
498,
484,
494,
476,
409,
400,
400,
431,
376,
345,
344,
340,
311,
281,
313,
287,
247,
257,
256,
241,
238,
182,
196,
179,
158,
169,
172,
167,
173,
137,
138,
143,
119,
129,
105,
117,
110,
85,
89,
57,
79,
62,
65,
59,
71,
53,
53,
38,
39,
24,
30,
28,
38,
27,
23,
26,
23,
23,
16,
18,
16,
14,
12,
7,
5,
4,
8,
2,
1,
1,
1,
0,
0,
1,
0,
0,
0,
0,
0,
0,
0,
0,
0,
0,
0,
0,
0,
0,
0,
0,
0,
0,
0,
0,
0,
0,
0,
1,
0,
0,
0,
0,
0,
0,
0,
0,
0,
0,
0,
0,
0,
0,
0,
0,
0,
0,
0,
0,
0,
0,
0,
0,
0,
0,
0,
0,
0,
0,
0,
0,
0,
1,
0,
0,
0,
0,
0,
0,
0,
0,
0,
0,
0,
0,
0,
0,
0,
0,
0,
0,
0,
0,
0,
0,
0,
0,
0,
0,
0,
0,
0,
0,
0,
0,
0,
0,
0,
0,
0,
0,
0,
0,
0,
0,
0,
0,
0,
0,
0,
0,
0,
0,
0,
0,
0,
0,
0,
0,
0,
0,
0,
0,
0,
0,
0,
0,
0,
0,
0,
0,
0,
0,
0,
0,
0,
0,
0,
0,
0,
0,
0,
0,
0,
0,
0,
0,
0,
0,
0,
0,
#ENDOFDATA   :