File: N132962/Quantification/MMM1/SPI MM1 Benitoite[6][4].msa
#FORMAT      : EMSA/MAS Spectral Data File
#VERSION     : 1.0
#TITLE       : SPI MM1 Benitoite[6][all]
#DATE        : 11-MAR-2025
#TIME        : 13:23
#OWNER       : Unknown
#NPOINTS     : 4096
#NCOLUMNS    : 1
#XUNITS      : eV
#YUNITS      : counts
#DATATYPE    : Y
#XPERCHAN    : 9.99778
#OFFSET      : 1.69135
#BEAMKV      : 20
#SIGNALTYPE  : EDS
#ELEVANGLE   : 35
#AZIMANGLE   : 0
#LIVETIME    : 239.898
#REALTIME    : 256.805
#PROBECUR    : 1.02853
#TAUWIND     : 0
#TDEADLYR    : 0
#TACTLYR     : 0.045
#TALWIND     : 0.025
#CHOFFSET    : 0.0
#XLABEL      : Energy (eV)
#YLABEL      : Counts
#XPOSITION   : -3.34096
#YPOSITION   : -4.90603
#ZPOSITION   : 30.9284
#EDSDET      : SD
##SPECIMEN   : SPI MM1 Benitoite[6][all]
##D2STDCMP   : Benitoite,(O:34.828),(Si:20.3791),(Ti:11.5776),(Ba:33.2153)
##DET_HASH   : 12273538-fd48-a23f-0a19-f1e6fa85caef
##CALIB_HASH : 6abaa72c-aa41-8738-0be9-f592914732f3
##WORKING    : 15.0 mm
##DET_NAME   : EDAX All
##DET_MODE   : MediumLE
#SPECTRUM    :
15,
262,
11403,
12129,
44416,
3697,
3913,
4899,
3845,
4147,
4571,
5441,
46352,
23109,
4026,
4072,
4371,
3974,
4012,
4212,
4146,
3864,
4036,
3739,
3698,
3774,
3459,
3334,
4613,
3540,
3139,
6425,
80859,
7303,
11410,
19373,
4594,
8945,
2440,
3373,
3339,
2639,
2444,
1994,
1832,
1875,
1872,
1725,
1596,
1584,
1557,
1530,
1500,
1468,
1502,
1361,
1327,
1272,
1257,
1275,
1211,
1160,
1106,
1169,
1109,
1070,
963,
1007,
976,
927,
904,
886,
868,
867,
809,
767,
750,
777,
684,
680,
661,
577,
598,
550,
605,
555,
498,
535,
479,
479,
464,
432,
411,
394,
382,
329,
335,
345,
319,
292,
277,
273,
252,
245,
218,
226,
221,
214,
215,
167,
173,
148,
163,
151,
142,
124,
123,
124,
98,
100,
83,
98,
68,
77,
76,
81,
40,
42,
51,
40,
39,
39,
33,
25,
29,
24,
21,
13,
16,
10,
8,
6,
2,
0,
1,
0,
0,
0,
0,
1,
0,
1,
2,
0,
1,
1,
0,
1,
2,
2,
0,
2,
0,
0,
0,
0,
0,
1,
0,
0,
0,
0,
0,
0,
1,
0,
0,
0,
1,
0,
0,
0,
0,
0,
0,
0,
0,
0,
0,
0,
0,
0,
0,
1,
0,
0,
0,
0,
0,
0,
0,
0,
0,
0,
0,
0,
0,
0,
0,
0,
0,
0,
0,
0,
0,
0,
0,
0,
0,
0,
0,
0,
0,
0,
0,
0,
0,
0,
0,
0,
0,
0,
0,
0,
0,
0,
0,
0,
0,
0,
0,
0,
0,
0,
0,
0,
0,
0,
0,
0,
0,
0,
0,
0,
0,
0,
0,
0,
0,
0,
0,
0,
0,
0,
0,
0,
0,
0,
0,
0,
0,
0,
0,
0,
0,
0,
0,
0,
0,
0,
0,
0,
0,
0,
0,
0,
0,
0,
0,
0,
0,
0,
0,
0,
#ENDOFDATA   :