File: N132962/Quantification/MMM1/SPI MM1 Andradite[1][4].msa
#FORMAT      : EMSA/MAS Spectral Data File
#VERSION     : 1.0
#TITLE       : SPI MM1 Andradite[1][all]
#DATE        : 11-MAR-2025
#TIME        : 13:08
#OWNER       : Unknown
#NPOINTS     : 4096
#NCOLUMNS    : 1
#XUNITS      : eV
#YUNITS      : counts
#DATATYPE    : Y
#XPERCHAN    : 9.99778
#OFFSET      : 1.69135
#BEAMKV      : 20
#SIGNALTYPE  : EDS
#ELEVANGLE   : 35
#AZIMANGLE   : 0
#LIVETIME    : 240.051
#REALTIME    : 254.628
#PROBECUR    : 1.02699
#TAUWIND     : 0
#TDEADLYR    : 0
#TACTLYR     : 0.045
#TALWIND     : 0.025
#CHOFFSET    : 0.0
#XLABEL      : Energy (eV)
#YLABEL      : Counts
#XPOSITION   : -2.20546
#YPOSITION   : -8.03832
#ZPOSITION   : 30.9284
#EDSDET      : SD
##SPECIMEN   : SPI MM1 Andradite[1][all]
##D2STDCMP   : Andradite,(O:37.7805),(Si:16.5802),(Ca:23.6603),(Fe:21.979),3.86
##DET_HASH   : 12273538-fd48-a23f-0a19-f1e6fa85caef
##CALIB_HASH : 6abaa72c-aa41-8738-0be9-f592914732f3
##WORKING    : 15.0 mm
##DET_NAME   : EDAX All
##DET_MODE   : MediumLE
#SPECTRUM    :
31,
234,
21339,
3659,
28773,
9653,
2369,
2647,
3232,
3857,
5083,
9541,
32517,
16918,
4891,
3306,
3561,
3227,
3329,
3249,
3148,
2927,
2921,
2842,
2722,
3282,
71275,
24599,
5266,
12420,
2000,
1866,
1842,
1856,
1712,
1640,
1638,
1524,
1498,
1621,
1425,
1441,
1832,
1445,
1269,
7149,
19694,
1350,
1133,
1157,
3117,
2111,
932,
1017,
957,
833,
851,
798,
858,
786,
758,
716,
647,
689,
637,
621,
643,
592,
586,
557,
521,
576,
535,
490,
480,
446,
464,
457,
394,
380,
359,
362,
358,
339,
291,
306,
300,
293,
266,
242,
225,
236,
220,
199,
205,
197,
168,
170,
173,
156,
143,
148,
135,
122,
137,
134,
101,
104,
96,
118,
95,
89,
69,
69,
73,
57,
54,
65,
46,
57,
49,
50,
43,
33,
36,
18,
24,
17,
32,
25,
23,
16,
16,
14,
8,
6,
10,
8,
3,
6,
5,
3,
3,
0,
1,
0,
2,
2,
0,
1,
0,
0,
0,
0,
0,
0,
0,
0,
0,
0,
0,
0,
0,
0,
2,
0,
0,
0,
0,
0,
0,
0,
0,
0,
0,
0,
0,
0,
0,
0,
0,
0,
0,
0,
0,
0,
0,
0,
0,
0,
0,
0,
0,
0,
0,
0,
0,
0,
0,
0,
0,
0,
0,
0,
0,
0,
0,
1,
0,
0,
0,
0,
0,
0,
0,
0,
0,
0,
0,
0,
0,
0,
0,
0,
0,
0,
0,
0,
0,
0,
0,
0,
0,
0,
0,
0,
0,
0,
0,
0,
0,
0,
0,
0,
0,
0,
0,
0,
0,
0,
0,
0,
0,
0,
0,
0,
0,
0,
0,
0,
0,
0,
0,
0,
0,
0,
0,
0,
0,
0,
0,
0,
0,
0,
0,
0,
0,
0,
0,
0,
0,
0,
0,
0,
0,
0,
0,
0,
0,
0,
0,
0,
0,
0,
#ENDOFDATA   :