File: N132962/Quantification/MMM1/SPI MM1 Benitoite[3][4].msa
#FORMAT      : EMSA/MAS Spectral Data File
#VERSION     : 1.0
#TITLE       : SPI MM1 Benitoite[3][all]
#DATE        : 11-MAR-2025
#TIME        : 13:19
#OWNER       : Unknown
#NPOINTS     : 4096
#NCOLUMNS    : 1
#XUNITS      : eV
#YUNITS      : counts
#DATATYPE    : Y
#XPERCHAN    : 9.99778
#OFFSET      : 1.69135
#BEAMKV      : 20
#SIGNALTYPE  : EDS
#ELEVANGLE   : 35
#AZIMANGLE   : 0
#LIVETIME    : 239.857
#REALTIME    : 256.742
#PROBECUR    : 1.02853
#TAUWIND     : 0
#TDEADLYR    : 0
#TACTLYR     : 0.045
#TALWIND     : 0.025
#CHOFFSET    : 0.0
#XLABEL      : Energy (eV)
#YLABEL      : Counts
#XPOSITION   : -3.24748
#YPOSITION   : -4.89207
#ZPOSITION   : 30.9284
#EDSDET      : SD
##SPECIMEN   : SPI MM1 Benitoite[3][all]
##D2STDCMP   : Benitoite,(O:34.828),(Si:20.3791),(Ti:11.5776),(Ba:33.2153)
##DET_HASH   : 12273538-fd48-a23f-0a19-f1e6fa85caef
##CALIB_HASH : 6abaa72c-aa41-8738-0be9-f592914732f3
##WORKING    : 15.0 mm
##DET_NAME   : EDAX All
##DET_MODE   : MediumLE
#SPECTRUM    :
17,
259,
11463,
12098,
44261,
3680,
3921,
4799,
3941,
4099,
4742,
5482,
46274,
23384,
3810,
3992,
4305,
4061,
4139,
4149,
4241,
3885,
3959,
3729,
3705,
3728,
3463,
3379,
4631,
3511,
3311,
6369,
80663,
7150,
11205,
19346,
4687,
8983,
2299,
3354,
3344,
2709,
2406,
1968,
1884,
1912,
1939,
1714,
1639,
1565,
1564,
1546,
1436,
1493,
1424,
1400,
1316,
1292,
1267,
1286,
1206,
1166,
1014,
1092,
1140,
1033,
1014,
1020,
970,
964,
882,
869,
877,
839,
800,
795,
745,
748,
699,
633,
643,
600,
567,
629,
566,
576,
548,
476,
463,
445,
476,
413,
386,
342,
395,
398,
339,
325,
310,
319,
272,
241,
224,
223,
237,
225,
225,
220,
176,
178,
178,
137,
153,
126,
157,
118,
141,
114,
100,
99,
86,
67,
83,
64,
73,
54,
52,
50,
55,
41,
50,
38,
29,
27,
29,
24,
19,
18,
18,
11,
7,
3,
0,
2,
0,
1,
1,
0,
0,
1,
0,
1,
2,
0,
1,
0,
1,
1,
2,
1,
1,
1,
0,
0,
0,
0,
0,
0,
1,
0,
1,
0,
0,
0,
1,
0,
0,
1,
0,
0,
0,
1,
0,
0,
0,
0,
0,
0,
0,
0,
0,
0,
0,
0,
0,
0,
0,
0,
0,
0,
0,
0,
0,
0,
0,
1,
0,
0,
0,
0,
0,
0,
0,
0,
0,
0,
0,
0,
0,
0,
0,
0,
0,
0,
1,
0,
0,
0,
0,
0,
0,
0,
0,
0,
0,
0,
0,
0,
0,
0,
0,
0,
0,
0,
0,
0,
0,
0,
0,
0,
0,
0,
0,
0,
0,
0,
0,
0,
0,
0,
0,
0,
0,
0,
0,
0,
0,
0,
0,
0,
0,
0,
0,
0,
0,
0,
0,
0,
0,
0,
0,
0,
0,
0,
0,
0,
0,
0,
0,
0,
0,
0,
0,
0,
#ENDOFDATA   :