File: N132962/Quantification/MMM1/SPI MM1 Chromite[2][4].msa
#FORMAT      : EMSA/MAS Spectral Data File
#VERSION     : 1.0
#TITLE       : SPI MM1dup Chromite[2][all]
#DATE        : 12-MAR-2025
#TIME        : 14:11
#OWNER       : Unknown
#NPOINTS     : 4096
#NCOLUMNS    : 1
#XUNITS      : eV
#YUNITS      : counts
#DATATYPE    : Y
#XPERCHAN    : 9.99778
#OFFSET      : 1.69135
#BEAMKV      : 20
#SIGNALTYPE  : EDS
#ELEVANGLE   : 35
#AZIMANGLE   : 0
#LIVETIME    : 239.169
#REALTIME    : 254.957
#PROBECUR    : 1.02867
#TAUWIND     : 0
#TDEADLYR    : 0
#TACTLYR     : 0.045
#TALWIND     : 0.025
#CHOFFSET    : 0.0
#XLABEL      : Energy (eV)
#YLABEL      : Counts
#XPOSITION   : 4.22056
#YPOSITION   : -0.15504
#ZPOSITION   : 31.03609
#EDSDET      : SD
##SPECIMEN   : SPI MM1dup Chromite[2][all]
##DET_HASH   : 12273538-fd48-a23f-0a19-f1e6fa85caef
##CALIB_HASH : 6abaa72c-aa41-8738-0be9-f592914732f3
##WORKING    : 15.0 mm
##DET_NAME   : EDAX All
##DET_MODE   : MediumLE
#SPECTRUM    :
19,
234,
12445,
10090,
78575,
8241,
2337,
2840,
3597,
55112,
7185,
24744,
4766,
4223,
3250,
3174,
3222,
3276,
3176,
3435,
2967,
2993,
2858,
2869,
2705,
2725,
3006,
2424,
2401,
2366,
2279,
2161,
2398,
2178,
2075,
2121,
1858,
2046,
20594,
54573,
1886,
1812,
7659,
5545,
1357,
5596,
15499,
1395,
1177,
1251,
2847,
1829,
926,
1077,
1013,
945,
833,
784,
852,
802,
776,
739,
733,
689,
708,
615,
646,
569,
652,
583,
577,
557,
556,
538,
453,
474,
467,
472,
469,
419,
404,
399,
356,
339,
349,
337,
311,
284,
297,
280,
273,
240,
261,
233,
227,
205,
200,
181,
185,
166,
165,
167,
134,
149,
151,
118,
114,
114,
87,
92,
88,
98,
88,
85,
56,
68,
61,
53,
54,
43,
50,
51,
47,
45,
41,
37,
27,
31,
29,
19,
24,
20,
18,
16,
11,
12,
10,
3,
7,
3,
7,
2,
1,
1,
0,
1,
0,
1,
1,
1,
0,
0,
0,
0,
0,
0,
1,
0,
0,
0,
0,
0,
0,
0,
0,
0,
0,
0,
0,
0,
0,
0,
0,
0,
0,
0,
0,
0,
0,
0,
0,
0,
0,
0,
0,
1,
0,
0,
0,
0,
0,
1,
0,
0,
0,
0,
0,
0,
0,
0,
0,
0,
0,
0,
0,
0,
0,
0,
0,
0,
0,
0,
0,
0,
0,
0,
0,
0,
0,
0,
0,
0,
0,
0,
0,
0,
0,
0,
0,
0,
0,
0,
0,
0,
0,
0,
0,
0,
0,
0,
0,
0,
0,
0,
0,
0,
0,
0,
0,
0,
0,
0,
0,
0,
0,
0,
0,
0,
0,
0,
0,
0,
0,
0,
0,
0,
0,
0,
0,
0,
0,
0,
0,
0,
0,
0,
0,
0,
0,
0,
0,
0,
0,
0,
0,
0,
0,
0,
0,
0,
0,
0,
0,
0,
#ENDOFDATA   :