File: N132962/Quantification/MMM1/SPI MM1 Bustamite[2][4].msa
#FORMAT      : EMSA/MAS Spectral Data File
#VERSION     : 1.0
#TITLE       : SPI MM1 Bustamite[2][all]
#DATE        : 11-MAR-2025
#TIME        : 14:05
#OWNER       : Unknown
#NPOINTS     : 4096
#NCOLUMNS    : 1
#XUNITS      : eV
#YUNITS      : counts
#DATATYPE    : Y
#XPERCHAN    : 9.99778
#OFFSET      : 1.69135
#BEAMKV      : 20
#SIGNALTYPE  : EDS
#ELEVANGLE   : 35
#AZIMANGLE   : 0
#LIVETIME    : 239.863
#REALTIME    : 255.724
#PROBECUR    : 1.02902
#TAUWIND     : 0
#TDEADLYR    : 0
#TACTLYR     : 0.045
#TALWIND     : 0.025
#CHOFFSET    : 0.0
#XLABEL      : Energy (eV)
#YLABEL      : Counts
#XPOSITION   : 2.6935
#YPOSITION   : -2.67485
#ZPOSITION   : 30.9284
#EDSDET      : SD
##SPECIMEN   : SPI MM1 Bustamite[2][all]
##D2STDCMP   : Bustamite,(O:38.8357),(Si:22.7243),(Ca:16.2141),(Mn:22.2259),6.0
##DET_HASH   : 12273538-fd48-a23f-0a19-f1e6fa85caef
##CALIB_HASH : 6abaa72c-aa41-8738-0be9-f592914732f3
##WORKING    : 15.0 mm
##DET_NAME   : EDAX All
##DET_MODE   : MediumLE
#SPECTRUM    :
18,
204,
11051,
4830,
41675,
6995,
2415,
3124,
3305,
4686,
4424,
5192,
56636,
27296,
3879,
3170,
3475,
3166,
3215,
3118,
3060,
3004,
2954,
2922,
2749,
3239,
36688,
13151,
3824,
7460,
2232,
1989,
2007,
1941,
1825,
1772,
1837,
1650,
1650,
1763,
1575,
2547,
39836,
4629,
1400,
4196,
14147,
2585,
1116,
1112,
2019,
1593,
976,
973,
924,
966,
850,
828,
837,
824,
741,
810,
792,
706,
676,
660,
625,
585,
635,
611,
546,
519,
490,
465,
480,
484,
471,
485,
417,
388,
409,
382,
358,
393,
346,
313,
318,
322,
291,
283,
246,
249,
240,
235,
219,
209,
194,
190,
179,
162,
171,
153,
125,
141,
137,
134,
125,
106,
99,
101,
91,
87,
71,
86,
62,
70,
69,
66,
65,
45,
59,
47,
46,
28,
35,
34,
21,
29,
19,
21,
17,
14,
16,
14,
6,
10,
12,
5,
10,
7,
6,
3,
1,
4,
1,
1,
1,
0,
0,
0,
1,
0,
0,
0,
0,
1,
1,
0,
0,
0,
1,
0,
0,
0,
0,
0,
0,
0,
0,
0,
0,
0,
0,
0,
0,
1,
0,
0,
0,
0,
0,
0,
0,
0,
0,
0,
0,
0,
0,
0,
0,
0,
0,
0,
0,
0,
0,
0,
0,
0,
0,
0,
0,
0,
0,
0,
0,
0,
0,
0,
0,
0,
0,
0,
0,
0,
0,
0,
0,
0,
0,
0,
0,
0,
0,
0,
0,
0,
0,
0,
0,
0,
0,
0,
0,
0,
0,
0,
0,
0,
0,
0,
0,
0,
0,
0,
0,
0,
0,
0,
0,
0,
0,
0,
0,
0,
0,
0,
0,
0,
0,
0,
0,
0,
0,
0,
0,
0,
0,
0,
0,
0,
0,
0,
0,
0,
0,
0,
0,
0,
0,
0,
0,
0,
0,
0,
0,
0,
0,
0,
0,
0,
0,
0,
#ENDOFDATA   :