File: N132962/Quantification/MMM1/SPI MM1 Chlorite[5][4].msa
#FORMAT      : EMSA/MAS Spectral Data File
#VERSION     : 1.0
#TITLE       : SPI MM1dup Chlorite[5][all]
#DATE        : 12-MAR-2025
#TIME        : 14:23
#OWNER       : Unknown
#NPOINTS     : 4096
#NCOLUMNS    : 1
#XUNITS      : eV
#YUNITS      : counts
#DATATYPE    : Y
#XPERCHAN    : 9.99778
#OFFSET      : 1.69135
#BEAMKV      : 20
#SIGNALTYPE  : EDS
#ELEVANGLE   : 35
#AZIMANGLE   : 0
#LIVETIME    : 239.7977
#REALTIME    : 254.63
#PROBECUR    : 1.02867
#TAUWIND     : 0
#TDEADLYR    : 0
#TACTLYR     : 0.045
#TALWIND     : 0.025
#CHOFFSET    : 0.0
#XLABEL      : Energy (eV)
#YLABEL      : Counts
#XPOSITION   : 6.37367
#YPOSITION   : -0.13273
#ZPOSITION   : 31.03608
#EDSDET      : SD
##SPECIMEN   : SPI MM1dup Chlorite[5][all]
##DET_HASH   : 12273538-fd48-a23f-0a19-f1e6fa85caef
##CALIB_HASH : 6abaa72c-aa41-8738-0be9-f592914732f3
##WORKING    : 15.0 mm
##DET_NAME   : EDAX All
##DET_MODE   : MediumLE
#SPECTRUM    :
24,
186,
8570,
7454,
80828,
4336,
2787,
3196,
4590,
151155,
6416,
22281,
28357,
14263,
2285,
2150,
2373,
2225,
2275,
2209,
2085,
2100,
2087,
2000,
1854,
1796,
1772,
1682,
1507,
1557,
1416,
1430,
1396,
1351,
1296,
1243,
1186,
1148,
1809,
3292,
981,
997,
1247,
1118,
887,
1924,
4195,
803,
794,
777,
1173,
901,
669,
850,
730,
578,
577,
596,
519,
568,
478,
479,
480,
463,
450,
414,
410,
368,
367,
371,
346,
359,
361,
319,
330,
289,
307,
284,
254,
257,
263,
203,
249,
219,
224,
190,
201,
184,
174,
178,
154,
139,
118,
142,
137,
135,
115,
124,
113,
106,
91,
86,
96,
79,
68,
61,
73,
78,
47,
62,
46,
55,
52,
47,
47,
37,
41,
37,
30,
28,
29,
26,
27,
19,
25,
20,
16,
17,
21,
17,
14,
7,
10,
9,
6,
4,
6,
3,
2,
4,
3,
2,
2,
1,
0,
0,
0,
0,
0,
0,
0,
0,
0,
0,
0,
0,
0,
0,
0,
0,
0,
0,
0,
0,
0,
0,
0,
0,
0,
0,
0,
0,
0,
0,
0,
0,
0,
0,
0,
0,
0,
0,
0,
0,
0,
0,
0,
0,
0,
0,
0,
0,
0,
0,
0,
0,
0,
0,
0,
0,
0,
0,
0,
0,
0,
0,
0,
0,
0,
0,
0,
0,
0,
0,
0,
0,
0,
0,
0,
0,
0,
0,
0,
0,
0,
0,
0,
0,
0,
0,
0,
0,
0,
0,
0,
0,
0,
0,
0,
0,
0,
0,
0,
0,
0,
0,
0,
0,
0,
0,
0,
0,
0,
0,
0,
0,
0,
0,
0,
0,
0,
0,
0,
0,
0,
0,
0,
0,
0,
0,
0,
0,
0,
0,
0,
0,
0,
0,
0,
0,
0,
0,
0,
0,
0,
0,
0,
0,
0,
0,
0,
0,
0,
0,
#ENDOFDATA   :