File: N132962/Quantification/MMM1/SPI MM1 Hematite[6][4].msa
#FORMAT      : EMSA/MAS Spectral Data File
#VERSION     : 1.0
#TITLE       : SPI MM1dup Hematite[6][all]
#DATE        : 12-MAR-2025
#TIME        : 16:53
#OWNER       : Unknown
#NPOINTS     : 4096
#NCOLUMNS    : 1
#XUNITS      : eV
#YUNITS      : counts
#DATATYPE    : Y
#XPERCHAN    : 9.99778
#OFFSET      : 1.69135
#BEAMKV      : 20
#SIGNALTYPE  : EDS
#ELEVANGLE   : 35
#AZIMANGLE   : 0
#LIVETIME    : 239.804
#REALTIME    : 256.684
#PROBECUR    : 1.026781
#TAUWIND     : 0
#TDEADLYR    : 0
#TACTLYR     : 0.045
#TALWIND     : 0.025
#CHOFFSET    : 0.0
#XLABEL      : Energy (eV)
#YLABEL      : Counts
#XPOSITION   : 3.65796
#YPOSITION   : 4.18849
#ZPOSITION   : 31.03608
#EDSDET      : SD
##SPECIMEN   : SPI MM1dup Hematite[6][all]
##D2STDCMP   : Hematite,(O:30.0574),(Fe:69.9426),5.0
##DET_HASH   : 12273538-fd48-a23f-0a19-f1e6fa85caef
##CALIB_HASH : 6abaa72c-aa41-8738-0be9-f592914732f3
##WORKING    : 15.0 mm
##DET_NAME   : EDAX All
##DET_MODE   : MediumLE
#SPECTRUM    :
30,
269,
11100,
9810,
71144,
54650,
2305,
2387,
2811,
3369,
3664,
4170,
4615,
4871,
4212,
4208,
4317,
4312,
4204,
4080,
4139,
3877,
3738,
3646,
3605,
3491,
3377,
3250,
2966,
3124,
3025,
2847,
2786,
3081,
2777,
2537,
2382,
2325,
2428,
2244,
2221,
2052,
2043,
2039,
2269,
34803,
105675,
2903,
1800,
2268,
13623,
7772,
1238,
1316,
1248,
1106,
1130,
1122,
1043,
1081,
1010,
968,
940,
916,
955,
933,
926,
803,
858,
815,
756,
740,
738,
662,
673,
636,
597,
594,
573,
570,
555,
493,
513,
485,
469,
460,
477,
431,
439,
375,
398,
417,
382,
325,
332,
284,
328,
310,
264,
240,
223,
246,
220,
198,
192,
199,
172,
185,
142,
147,
151,
133,
152,
121,
108,
101,
85,
90,
81,
80,
82,
64,
69,
57,
48,
54,
43,
35,
30,
32,
38,
32,
27,
18,
20,
18,
16,
15,
15,
10,
6,
7,
3,
0,
0,
3,
2,
1,
0,
1,
1,
0,
1,
1,
0,
0,
0,
0,
0,
2,
1,
0,
0,
0,
1,
2,
2,
0,
0,
0,
1,
0,
0,
0,
1,
0,
0,
0,
0,
0,
0,
0,
0,
0,
0,
0,
0,
0,
0,
0,
0,
0,
0,
0,
0,
0,
0,
0,
0,
0,
0,
0,
0,
0,
0,
0,
0,
0,
0,
0,
0,
0,
0,
0,
0,
0,
0,
0,
0,
0,
0,
0,
0,
0,
0,
0,
0,
0,
0,
0,
0,
0,
0,
0,
0,
0,
0,
0,
0,
0,
0,
0,
0,
0,
0,
0,
0,
0,
0,
0,
0,
0,
0,
0,
0,
0,
0,
0,
0,
0,
0,
0,
0,
0,
0,
0,
0,
0,
0,
0,
0,
0,
0,
0,
0,
0,
0,
0,
0,
0,
0,
0,
0,
0,
0,
0,
0,
0,
0,
0,
0,
0,
0,
0,
#ENDOFDATA   :