File: N132962/Quantification/MMM1/SPI MM1 Dolomite[1][4].msa
#FORMAT      : EMSA/MAS Spectral Data File
#VERSION     : 1.0
#TITLE       : SPI MM1dup Dolomite[1][all]
#DATE        : 12-MAR-2025
#TIME        : 15:46
#OWNER       : Unknown
#NPOINTS     : 4096
#NCOLUMNS    : 1
#XUNITS      : eV
#YUNITS      : counts
#DATATYPE    : Y
#XPERCHAN    : 9.99778
#OFFSET      : 1.69135
#BEAMKV      : 20
#SIGNALTYPE  : EDS
#ELEVANGLE   : 35
#AZIMANGLE   : 0
#LIVETIME    : 239.813
#REALTIME    : 250.663
#PROBECUR    : 1.02695
#TAUWIND     : 0
#TDEADLYR    : 0
#TACTLYR     : 0.045
#TALWIND     : 0.025
#CHOFFSET    : 0.0
#XLABEL      : Energy (eV)
#YLABEL      : Counts
#XPOSITION   : -0.05224
#YPOSITION   : 1.9921
#ZPOSITION   : 31.03608
#EDSDET      : SD
##SPECIMEN   : SPI MM1dup Dolomite[1][all]
##DET_HASH   : 12273538-fd48-a23f-0a19-f1e6fa85caef
##CALIB_HASH : 6abaa72c-aa41-8738-0be9-f592914732f3
##WORKING    : 15.0 mm
##DET_NAME   : EDAX All
##DET_MODE   : MediumLE
#SPECTRUM    :
20,
212,
26977,
3614,
34873,
1721,
1990,
2501,
3568,
85222,
2847,
3017,
3254,
3413,
4003,
2992,
2970,
2711,
2657,
2573,
2495,
2430,
2357,
2226,
2150,
2517,
55559,
19085,
4086,
9546,
1484,
1313,
1246,
1217,
1258,
1287,
1188,
1125,
1052,
1068,
1050,
920,
988,
948,
838,
977,
1039,
792,
809,
777,
796,
766,
709,
711,
679,
626,
624,
557,
558,
553,
511,
447,
481,
467,
437,
427,
403,
424,
374,
375,
353,
361,
346,
302,
331,
300,
307,
270,
282,
237,
239,
246,
224,
212,
212,
202,
201,
153,
168,
155,
167,
153,
145,
146,
150,
123,
110,
107,
104,
121,
100,
108,
96,
94,
85,
74,
73,
64,
65,
67,
58,
44,
34,
38,
48,
39,
46,
30,
43,
37,
29,
28,
23,
16,
14,
17,
18,
16,
10,
18,
16,
7,
13,
9,
6,
5,
4,
6,
1,
1,
4,
2,
1,
0,
0,
0,
0,
0,
0,
1,
0,
0,
0,
0,
0,
0,
0,
0,
0,
0,
0,
0,
0,
1,
0,
0,
0,
0,
0,
0,
0,
0,
0,
0,
0,
0,
0,
0,
0,
0,
0,
0,
0,
0,
0,
0,
0,
0,
0,
0,
0,
0,
0,
0,
0,
0,
0,
0,
0,
0,
0,
0,
0,
0,
0,
0,
0,
0,
0,
0,
0,
0,
0,
0,
0,
0,
0,
0,
0,
0,
0,
0,
0,
0,
0,
0,
0,
0,
0,
0,
0,
0,
0,
0,
0,
0,
0,
0,
0,
0,
0,
0,
0,
0,
0,
0,
0,
0,
0,
0,
0,
0,
0,
0,
0,
0,
0,
0,
0,
0,
0,
0,
0,
0,
0,
0,
0,
0,
0,
0,
0,
0,
0,
0,
0,
0,
0,
0,
0,
0,
0,
0,
0,
0,
0,
0,
0,
0,
0,
0,
0,
0,
0,
0,
#ENDOFDATA   :