File: N132962/Quantification/MMM1/SPI MM1 Kaersutite[1][4].msa
#FORMAT      : EMSA/MAS Spectral Data File
#VERSION     : 1.0
#TITLE       : SPI MM1dup Kaersutite[1][all]
#DATE        : 12-MAR-2025
#TIME        : 16:21
#OWNER       : Unknown
#NPOINTS     : 4096
#NCOLUMNS    : 1
#XUNITS      : eV
#YUNITS      : counts
#DATATYPE    : Y
#XPERCHAN    : 9.99778
#OFFSET      : 1.69135
#BEAMKV      : 20
#SIGNALTYPE  : EDS
#ELEVANGLE   : 35
#AZIMANGLE   : 0
#LIVETIME    : 239.871
#REALTIME    : 254.497
#PROBECUR    : 1.02709
#TAUWIND     : 0
#TDEADLYR    : 0
#TACTLYR     : 0.045
#TALWIND     : 0.025
#CHOFFSET    : 0.0
#XLABEL      : Energy (eV)
#YLABEL      : Counts
#XPOSITION   : -1.60494
#YPOSITION   : 3.57862
#ZPOSITION   : 31.03608
#EDSDET      : SD
##SPECIMEN   : SPI MM1dup Kaersutite[1][all]
##DET_HASH   : 12273538-fd48-a23f-0a19-f1e6fa85caef
##CALIB_HASH : 6abaa72c-aa41-8738-0be9-f592914732f3
##WORKING    : 15.0 mm
##DET_NAME   : EDAX All
##DET_MODE   : MediumLE
#SPECTRUM    :
20,
193,
9726,
5785,
43310,
8530,
2502,
4882,
4166,
53913,
6752,
20095,
42221,
21174,
2992,
2791,
3081,
2788,
2719,
2805,
2705,
2553,
2496,
2955,
4961,
2642,
22232,
8412,
2781,
4797,
1840,
1821,
10400,
2545,
1635,
2761,
1611,
1476,
1393,
1415,
1280,
1242,
1417,
1150,
1202,
4973,
13428,
1124,
978,
1014,
2336,
1609,
827,
830,
789,
768,
745,
741,
713,
717,
667,
653,
547,
623,
575,
568,
510,
527,
468,
495,
486,
427,
464,
415,
414,
373,
418,
327,
353,
326,
315,
311,
267,
273,
300,
278,
238,
275,
227,
209,
212,
203,
215,
198,
176,
158,
145,
172,
144,
159,
131,
114,
109,
93,
131,
99,
76,
90,
99,
82,
66,
57,
65,
64,
61,
65,
56,
51,
42,
38,
35,
25,
27,
38,
32,
36,
15,
29,
13,
23,
14,
13,
17,
11,
11,
7,
6,
5,
7,
3,
6,
3,
2,
1,
0,
0,
0,
0,
0,
1,
0,
0,
0,
0,
0,
0,
0,
0,
0,
0,
0,
0,
0,
0,
0,
0,
0,
0,
0,
1,
0,
0,
0,
0,
0,
0,
0,
0,
0,
0,
0,
0,
0,
0,
0,
0,
0,
0,
0,
0,
0,
0,
0,
0,
0,
0,
0,
0,
0,
0,
0,
0,
0,
0,
0,
0,
0,
0,
0,
0,
0,
0,
0,
0,
0,
0,
0,
0,
0,
0,
0,
0,
0,
0,
0,
0,
0,
0,
0,
0,
0,
0,
0,
0,
0,
0,
0,
0,
0,
0,
0,
0,
0,
0,
0,
0,
0,
0,
0,
0,
0,
0,
0,
0,
0,
0,
0,
0,
0,
0,
0,
0,
0,
0,
0,
0,
0,
0,
0,
0,
0,
0,
0,
0,
0,
0,
0,
0,
0,
0,
0,
0,
0,
0,
0,
0,
0,
0,
0,
0,
0,
0,
0,
0,
#ENDOFDATA   :