File: N132962/Quantification/MMM1/SPI MM1 Crocoite[5][4].msa
#FORMAT      : EMSA/MAS Spectral Data File
#VERSION     : 1.0
#TITLE       : SPI MM1dup Crocoite[5][all]
#DATE        : 12-MAR-2025
#TIME        : 13:55
#OWNER       : Unknown
#NPOINTS     : 4096
#NCOLUMNS    : 1
#XUNITS      : eV
#YUNITS      : counts
#DATATYPE    : Y
#XPERCHAN    : 9.99778
#OFFSET      : 1.69135
#BEAMKV      : 20
#SIGNALTYPE  : EDS
#ELEVANGLE   : 35
#AZIMANGLE   : 0
#LIVETIME    : 239.797
#REALTIME    : 261.936
#PROBECUR    : 1.02627
#TAUWIND     : 0
#TDEADLYR    : 0
#TACTLYR     : 0.045
#TALWIND     : 0.025
#CHOFFSET    : 0.0
#XLABEL      : Energy (eV)
#YLABEL      : Counts
#XPOSITION   : -1.14413
#YPOSITION   : -0.60928
#ZPOSITION   : 31.03608
#EDSDET      : SD
##SPECIMEN   : SPI MM1dup Crocoite[5][all]
##DET_HASH   : 12273538-fd48-a23f-0a19-f1e6fa85caef
##CALIB_HASH : 6abaa72c-aa41-8738-0be9-f592914732f3
##WORKING    : 15.0 mm
##DET_NAME   : EDAX All
##DET_MODE   : MediumLE
#SPECTRUM    :
22,
760,
17674,
6635,
30050,
6374,
5227,
5825,
6620,
7230,
8031,
8510,
9191,
17978,
8367,
8817,
17606,
138971,
23578,
11259,
5047,
5549,
6716,
5129,
4660,
4935,
4835,
4881,
4489,
4406,
4704,
4525,
4354,
4359,
4514,
4302,
4155,
4150,
14619,
32621,
3969,
3805,
6608,
5903,
3484,
3443,
3695,
3199,
3009,
3156,
3042,
3007,
2995,
3012,
2824,
2703,
2718,
2484,
2555,
2464,
2425,
2330,
2302,
2220,
2168,
2352,
2523,
2053,
1962,
1915,
1851,
1788,
1703,
1822,
2560,
9899,
5501,
1606,
1506,
1402,
1378,
1382,
1329,
1321,
1239,
1128,
1273,
1249,
1234,
1731,
4565,
1847,
1057,
1104,
858,
763,
757,
698,
692,
670,
628,
584,
570,
589,
589,
788,
651,
527,
515,
464,
390,
418,
375,
358,
347,
288,
280,
283,
272,
232,
218,
210,
186,
182,
166,
159,
154,
133,
140,
135,
92,
92,
103,
63,
55,
62,
52,
57,
39,
35,
23,
9,
4,
6,
5,
1,
3,
4,
3,
4,
3,
3,
3,
5,
3,
1,
0,
5,
2,
1,
0,
1,
3,
2,
2,
2,
0,
1,
1,
2,
0,
2,
1,
2,
1,
0,
0,
3,
1,
0,
2,
1,
0,
0,
1,
1,
1,
0,
0,
1,
0,
3,
0,
1,
0,
0,
0,
0,
0,
0,
0,
0,
0,
0,
0,
2,
0,
1,
0,
0,
0,
1,
0,
0,
0,
0,
1,
0,
0,
0,
0,
0,
0,
0,
0,
0,
0,
0,
0,
0,
0,
0,
0,
0,
0,
0,
0,
0,
0,
0,
0,
0,
0,
0,
0,
0,
0,
0,
0,
0,
0,
0,
0,
0,
0,
0,
0,
0,
0,
0,
0,
0,
0,
0,
0,
0,
0,
0,
0,
0,
0,
0,
0,
0,
0,
0,
0,
0,
0,
0,
0,
0,
0,
0,
0,
0,
0,
0,
0,
0,
0,
0,
0,
0,
#ENDOFDATA   :