File: N132962/Quantification/MMM1/SPI MM1 Barite[7][4].msa
#FORMAT      : EMSA/MAS Spectral Data File
#VERSION     : 1.0
#TITLE       : SPI MM1 Barite[7][all]
#DATE        : 11-MAR-2025
#TIME        : 13:33
#OWNER       : Unknown
#NPOINTS     : 4096
#NCOLUMNS    : 1
#XUNITS      : eV
#YUNITS      : counts
#DATATYPE    : Y
#XPERCHAN    : 9.99778
#OFFSET      : 1.69135
#BEAMKV      : 20
#SIGNALTYPE  : EDS
#ELEVANGLE   : 35
#AZIMANGLE   : 0
#LIVETIME    : 239.872
#REALTIME    : 258.915
#PROBECUR    : 1.02853
#TAUWIND     : 0
#TDEADLYR    : 0
#TACTLYR     : 0.045
#TALWIND     : 0.025
#CHOFFSET    : 0.0
#XLABEL      : Energy (eV)
#YLABEL      : Counts
#XPOSITION   : -0.3737
#YPOSITION   : -5.07894
#ZPOSITION   : 30.9284
#EDSDET      : SD
##SPECIMEN   : SPI MM1 Barite[7][all]
##DET_HASH   : 12273538-fd48-a23f-0a19-f1e6fa85caef
##CALIB_HASH : 6abaa72c-aa41-8738-0be9-f592914732f3
##WORKING    : 15.0 mm
##DET_NAME   : EDAX All
##DET_MODE   : MediumLE
#SPECTRUM    :
24,
1009,
13934,
8030,
55244,
6085,
5165,
5921,
4337,
4404,
4673,
5313,
5615,
6173,
5510,
5704,
28023,
24061,
7248,
5219,
5264,
4858,
5117,
4763,
4750,
4455,
4420,
4389,
6368,
4561,
4124,
9346,
83471,
5003,
18957,
25937,
6071,
15812,
3338,
4947,
5200,
3942,
3452,
2676,
2320,
2448,
2515,
2210,
2105,
2238,
2084,
2123,
2031,
2116,
1929,
1863,
1821,
1755,
1736,
1752,
1612,
1621,
1531,
1555,
1525,
1411,
1420,
1409,
1329,
1341,
1321,
1267,
1176,
1173,
1087,
1054,
1053,
1038,
978,
950,
935,
935,
861,
809,
816,
743,
717,
707,
670,
704,
646,
621,
582,
571,
560,
535,
482,
464,
457,
446,
414,
385,
372,
354,
378,
313,
317,
284,
258,
263,
253,
244,
223,
238,
230,
186,
185,
173,
143,
170,
145,
111,
135,
119,
109,
113,
87,
78,
85,
73,
63,
70,
47,
37,
35,
30,
35,
26,
24,
12,
10,
10,
3,
2,
3,
1,
0,
1,
0,
0,
0,
1,
0,
1,
2,
0,
0,
1,
2,
1,
0,
0,
0,
0,
0,
1,
0,
0,
0,
0,
0,
0,
0,
0,
0,
0,
0,
0,
0,
1,
0,
1,
0,
0,
0,
0,
0,
0,
0,
0,
0,
0,
0,
0,
0,
0,
0,
0,
0,
0,
0,
0,
0,
0,
0,
0,
0,
0,
0,
0,
0,
0,
0,
0,
0,
0,
0,
0,
0,
0,
1,
0,
0,
0,
0,
0,
0,
0,
0,
0,
0,
0,
0,
0,
0,
0,
0,
0,
0,
0,
0,
0,
0,
0,
0,
0,
0,
0,
0,
0,
0,
0,
0,
0,
0,
0,
0,
0,
0,
0,
0,
0,
0,
0,
0,
0,
0,
0,
0,
0,
0,
0,
0,
0,
0,
0,
0,
0,
0,
0,
0,
0,
0,
0,
0,
0,
0,
0,
0,
0,
0,
0,
0,
0,
#ENDOFDATA   :