File: N132962/Quantification/MMM1/SPI MM1 Barite[3][4].msa
#FORMAT      : EMSA/MAS Spectral Data File
#VERSION     : 1.0
#TITLE       : SPI MM1 Barite[3][all]
#DATE        : 11-MAR-2025
#TIME        : 13:29
#OWNER       : Unknown
#NPOINTS     : 4096
#NCOLUMNS    : 1
#XUNITS      : eV
#YUNITS      : counts
#DATATYPE    : Y
#XPERCHAN    : 9.99778
#OFFSET      : 1.69135
#BEAMKV      : 20
#SIGNALTYPE  : EDS
#ELEVANGLE   : 35
#AZIMANGLE   : 0
#LIVETIME    : 239.869
#REALTIME    : 258.917
#PROBECUR    : 1.02853
#TAUWIND     : 0
#TDEADLYR    : 0
#TACTLYR     : 0.045
#TALWIND     : 0.025
#CHOFFSET    : 0.0
#XLABEL      : Energy (eV)
#YLABEL      : Counts
#XPOSITION   : -0.37308
#YPOSITION   : -4.94878
#ZPOSITION   : 30.9284
#EDSDET      : SD
##SPECIMEN   : SPI MM1 Barite[3][all]
##DET_HASH   : 12273538-fd48-a23f-0a19-f1e6fa85caef
##CALIB_HASH : 6abaa72c-aa41-8738-0be9-f592914732f3
##WORKING    : 15.0 mm
##DET_NAME   : EDAX All
##DET_MODE   : MediumLE
#SPECTRUM    :
24,
1038,
13575,
8125,
55665,
5981,
5255,
6164,
4217,
4352,
4702,
5246,
5690,
6472,
5543,
5704,
28026,
24302,
7128,
5228,
5206,
4809,
5106,
4708,
4596,
4605,
4391,
4431,
6611,
4473,
4245,
9155,
83462,
5041,
18947,
26294,
5835,
15990,
3272,
4985,
5132,
3891,
3265,
2596,
2337,
2399,
2486,
2197,
2124,
2176,
2024,
2114,
1964,
2116,
2002,
1858,
1821,
1799,
1687,
1747,
1576,
1611,
1568,
1544,
1491,
1427,
1408,
1365,
1408,
1372,
1271,
1226,
1181,
1145,
1094,
1032,
1064,
1034,
1003,
939,
896,
875,
890,
838,
789,
815,
786,
723,
719,
703,
665,
593,
551,
567,
559,
536,
502,
486,
439,
451,
420,
407,
389,
373,
321,
324,
338,
275,
283,
260,
244,
230,
229,
239,
199,
180,
181,
148,
181,
151,
138,
152,
137,
120,
91,
114,
95,
87,
61,
66,
53,
57,
59,
51,
40,
34,
25,
22,
31,
17,
11,
8,
6,
2,
2,
0,
1,
1,
2,
1,
1,
1,
1,
1,
3,
2,
2,
2,
0,
1,
0,
1,
0,
1,
1,
0,
0,
0,
0,
0,
1,
0,
0,
0,
0,
0,
0,
1,
0,
0,
0,
0,
0,
0,
0,
0,
0,
0,
0,
0,
0,
0,
0,
0,
0,
0,
0,
0,
0,
0,
0,
0,
0,
0,
1,
0,
0,
0,
0,
0,
0,
0,
1,
0,
0,
0,
0,
0,
0,
0,
0,
0,
0,
0,
0,
0,
0,
0,
0,
0,
0,
0,
0,
0,
0,
0,
0,
0,
0,
0,
0,
0,
0,
0,
0,
0,
0,
0,
0,
0,
0,
0,
0,
0,
0,
0,
0,
0,
0,
0,
0,
0,
0,
0,
0,
0,
0,
0,
0,
0,
0,
0,
0,
0,
0,
0,
0,
0,
0,
0,
0,
0,
0,
0,
0,
0,
0,
0,
0,
0,
0,
0,
0,
0,
#ENDOFDATA   :