File: N132962/Quantification/MMM1/SPI MM1 Crocoite[0][4].msa
#FORMAT      : EMSA/MAS Spectral Data File
#VERSION     : 1.0
#TITLE       : SPI MM1dup Crocoite[0][all]
#DATE        : 12-MAR-2025
#TIME        : 13:49
#OWNER       : Unknown
#NPOINTS     : 4096
#NCOLUMNS    : 1
#XUNITS      : eV
#YUNITS      : counts
#DATATYPE    : Y
#XPERCHAN    : 9.99778
#OFFSET      : 1.69135
#BEAMKV      : 20
#SIGNALTYPE  : EDS
#ELEVANGLE   : 35
#AZIMANGLE   : 0
#LIVETIME    : 239.894
#REALTIME    : 262.051
#PROBECUR    : 1.02627
#TAUWIND     : 0
#TDEADLYR    : 0
#TACTLYR     : 0.045
#TALWIND     : 0.025
#CHOFFSET    : 0.0
#XLABEL      : Energy (eV)
#YLABEL      : Counts
#XPOSITION   : -1.17008
#YPOSITION   : -0.64091
#ZPOSITION   : 31.03608
#EDSDET      : SD
##SPECIMEN   : SPI MM1dup Crocoite[0][all]
##DET_HASH   : 12273538-fd48-a23f-0a19-f1e6fa85caef
##CALIB_HASH : 6abaa72c-aa41-8738-0be9-f592914732f3
##WORKING    : 15.0 mm
##DET_NAME   : EDAX All
##DET_MODE   : MediumLE
#SPECTRUM    :
26,
752,
17960,
6509,
29915,
6357,
5393,
5863,
6551,
7241,
7914,
8443,
8947,
18132,
8579,
8839,
17487,
138709,
23372,
11266,
4839,
5477,
6649,
4979,
4806,
4907,
4832,
4821,
4563,
4576,
4544,
4326,
4459,
4366,
4498,
4380,
4097,
4315,
14495,
32812,
4048,
3868,
6920,
6147,
3333,
3446,
3640,
3166,
3055,
3099,
3116,
2928,
2779,
2992,
2919,
2750,
2729,
2590,
2568,
2490,
2433,
2319,
2292,
2263,
2212,
2397,
2382,
2024,
1988,
1944,
1907,
1841,
1708,
1813,
2559,
9874,
5466,
1648,
1532,
1400,
1390,
1332,
1312,
1251,
1215,
1211,
1194,
1241,
1237,
1657,
4517,
1969,
1086,
1110,
782,
781,
749,
718,
740,
701,
612,
591,
548,
579,
525,
738,
686,
515,
504,
442,
391,
416,
340,
346,
345,
314,
289,
284,
283,
225,
225,
209,
199,
157,
182,
173,
162,
152,
155,
140,
128,
85,
91,
83,
64,
72,
49,
52,
31,
22,
21,
15,
10,
7,
1,
3,
4,
2,
1,
2,
4,
2,
2,
3,
2,
4,
0,
1,
1,
3,
1,
1,
1,
1,
2,
4,
4,
3,
3,
0,
1,
2,
1,
0,
1,
3,
1,
1,
1,
1,
0,
2,
1,
4,
0,
1,
0,
1,
0,
1,
0,
3,
0,
0,
1,
0,
0,
1,
0,
0,
1,
1,
0,
1,
0,
1,
0,
0,
0,
0,
0,
1,
0,
0,
0,
0,
1,
0,
0,
0,
0,
1,
0,
0,
0,
0,
0,
0,
0,
0,
0,
0,
0,
0,
0,
0,
0,
0,
0,
0,
0,
0,
0,
0,
0,
0,
0,
0,
0,
0,
0,
0,
0,
0,
0,
0,
0,
0,
0,
0,
0,
0,
0,
0,
0,
0,
0,
0,
0,
0,
0,
0,
0,
0,
0,
0,
0,
0,
0,
0,
0,
0,
0,
0,
0,
0,
0,
0,
0,
0,
0,
0,
0,
0,
#ENDOFDATA   :