File: N132962/Quantification/MMM1/SPI MM1 Kaersutite[0][4].msa
#FORMAT      : EMSA/MAS Spectral Data File
#VERSION     : 1.0
#TITLE       : SPI MM1dup Kaersutite[0][all]
#DATE        : 12-MAR-2025
#TIME        : 16:20
#OWNER       : Unknown
#NPOINTS     : 4096
#NCOLUMNS    : 1
#XUNITS      : eV
#YUNITS      : counts
#DATATYPE    : Y
#XPERCHAN    : 9.99778
#OFFSET      : 1.69135
#BEAMKV      : 20
#SIGNALTYPE  : EDS
#ELEVANGLE   : 35
#AZIMANGLE   : 0
#LIVETIME    : 239.742
#REALTIME    : 254.373
#PROBECUR    : 1.02709
#TAUWIND     : 0
#TDEADLYR    : 0
#TACTLYR     : 0.045
#TALWIND     : 0.025
#CHOFFSET    : 0.0
#XLABEL      : Energy (eV)
#YLABEL      : Counts
#XPOSITION   : -1.62807
#YPOSITION   : 3.58502
#ZPOSITION   : 31.03608
#EDSDET      : SD
##SPECIMEN   : SPI MM1dup Kaersutite[0][all]
##DET_HASH   : 12273538-fd48-a23f-0a19-f1e6fa85caef
##CALIB_HASH : 6abaa72c-aa41-8738-0be9-f592914732f3
##WORKING    : 15.0 mm
##DET_NAME   : EDAX All
##DET_MODE   : MediumLE
#SPECTRUM    :
22,
166,
9674,
5692,
43613,
8845,
2523,
4902,
4225,
54367,
6773,
20007,
42194,
20867,
3162,
2722,
2982,
2665,
2736,
2804,
2624,
2621,
2423,
2950,
4763,
2532,
21844,
8459,
2868,
4955,
1811,
1834,
10240,
2568,
1667,
2782,
1716,
1428,
1346,
1366,
1248,
1268,
1460,
1170,
1170,
4917,
13507,
1100,
952,
1024,
2296,
1548,
801,
870,
833,
831,
707,
709,
729,
672,
652,
657,
619,
590,
594,
586,
555,
492,
518,
531,
476,
456,
428,
355,
412,
383,
383,
348,
356,
327,
311,
332,
292,
260,
275,
286,
229,
215,
236,
219,
208,
188,
193,
180,
192,
181,
148,
147,
148,
146,
138,
135,
99,
92,
95,
90,
74,
103,
83,
75,
86,
79,
61,
60,
54,
52,
51,
46,
40,
38,
28,
44,
25,
28,
19,
25,
32,
28,
16,
15,
23,
12,
21,
11,
8,
5,
6,
4,
9,
5,
1,
1,
1,
0,
1,
0,
0,
0,
0,
0,
0,
0,
1,
0,
0,
0,
0,
0,
0,
0,
0,
0,
0,
0,
0,
0,
0,
0,
0,
0,
0,
0,
0,
0,
0,
0,
1,
0,
0,
0,
0,
0,
0,
0,
0,
0,
0,
0,
0,
0,
0,
0,
0,
0,
0,
0,
0,
0,
0,
0,
0,
0,
0,
0,
0,
0,
0,
0,
0,
0,
0,
0,
0,
0,
1,
0,
0,
0,
0,
0,
0,
0,
0,
0,
0,
0,
0,
0,
0,
0,
0,
0,
0,
0,
0,
0,
0,
0,
0,
0,
0,
0,
0,
0,
0,
0,
0,
0,
0,
0,
0,
0,
0,
0,
0,
0,
0,
0,
0,
0,
0,
0,
0,
0,
0,
0,
0,
0,
0,
0,
0,
0,
0,
0,
0,
0,
0,
0,
0,
0,
0,
0,
0,
0,
0,
0,
0,
0,
0,
0,
0,
0,
0,
0,
#ENDOFDATA   :