File: N132962/Quantification/MMM1/SPI MM1 Andradite[3][4].msa
#FORMAT      : EMSA/MAS Spectral Data File
#VERSION     : 1.0
#TITLE       : SPI MM1 Andradite[3][all]
#DATE        : 11-MAR-2025
#TIME        : 13:10
#OWNER       : Unknown
#NPOINTS     : 4096
#NCOLUMNS    : 1
#XUNITS      : eV
#YUNITS      : counts
#DATATYPE    : Y
#XPERCHAN    : 9.99778
#OFFSET      : 1.69135
#BEAMKV      : 20
#SIGNALTYPE  : EDS
#ELEVANGLE   : 35
#AZIMANGLE   : 0
#LIVETIME    : 239.873
#REALTIME    : 255.4
#PROBECUR    : 1.02699
#TAUWIND     : 0
#TDEADLYR    : 0
#TACTLYR     : 0.045
#TALWIND     : 0.025
#CHOFFSET    : 0.0
#XLABEL      : Energy (eV)
#YLABEL      : Counts
#XPOSITION   : -2.26362
#YPOSITION   : -7.98513
#ZPOSITION   : 30.9284
#EDSDET      : SD
##SPECIMEN   : SPI MM1 Andradite[3][all]
##D2STDCMP   : Andradite,(O:37.7805),(Si:16.5802),(Ca:23.6603),(Fe:21.979),3.86
##DET_HASH   : 12273538-fd48-a23f-0a19-f1e6fa85caef
##CALIB_HASH : 6abaa72c-aa41-8738-0be9-f592914732f3
##WORKING    : 15.0 mm
##DET_NAME   : EDAX All
##DET_MODE   : MediumLE
#SPECTRUM    :
33,
219,
12649,
3994,
31753,
13517,
2626,
2823,
3461,
4063,
5749,
12152,
42566,
21111,
4582,
3335,
3613,
3345,
3263,
3246,
3163,
3191,
3109,
3075,
2811,
3451,
61940,
21322,
5015,
11119,
2143,
1884,
1971,
1976,
1816,
1704,
1693,
1673,
1595,
1745,
1504,
1444,
2038,
1425,
1413,
8664,
24949,
1551,
1156,
1274,
3897,
2373,
956,
1071,
945,
919,
825,
865,
886,
775,
727,
729,
729,
721,
725,
682,
647,
633,
590,
520,
619,
547,
580,
507,
486,
478,
500,
426,
406,
402,
354,
407,
369,
362,
398,
320,
315,
314,
296,
255,
264,
268,
220,
235,
211,
211,
213,
186,
196,
180,
185,
166,
133,
158,
131,
141,
113,
123,
111,
105,
99,
83,
83,
72,
70,
73,
47,
48,
53,
49,
43,
44,
38,
33,
35,
32,
26,
21,
36,
20,
20,
23,
19,
10,
15,
4,
11,
5,
3,
6,
7,
3,
2,
0,
1,
1,
3,
0,
2,
0,
1,
0,
0,
1,
0,
1,
0,
0,
0,
0,
1,
0,
0,
0,
0,
1,
0,
0,
0,
0,
0,
0,
1,
1,
0,
0,
0,
0,
0,
0,
0,
0,
0,
0,
0,
0,
0,
0,
0,
0,
0,
0,
0,
0,
0,
0,
0,
0,
0,
0,
0,
1,
0,
0,
0,
0,
0,
0,
0,
0,
0,
0,
0,
0,
0,
0,
0,
0,
0,
0,
0,
0,
0,
0,
0,
0,
0,
0,
0,
0,
0,
0,
0,
0,
0,
0,
0,
0,
0,
0,
0,
0,
0,
0,
0,
0,
0,
0,
0,
0,
0,
0,
0,
0,
0,
0,
0,
0,
0,
0,
0,
0,
0,
0,
0,
0,
0,
0,
0,
0,
0,
0,
0,
0,
0,
0,
0,
0,
0,
0,
0,
0,
0,
0,
0,
0,
0,
0,
0,
0,
0,
0,
0,
0,
#ENDOFDATA   :