File: N132962/Quantification/MMM1/SPI MM1 Fluorapatite[5][4].msa
#FORMAT      : EMSA/MAS Spectral Data File
#VERSION     : 1.0
#TITLE       : SPI MM1 Fluorapatite[5][all]
#DATE        : 11-MAR-2025
#TIME        : 14:41
#OWNER       : Unknown
#NPOINTS     : 4096
#NCOLUMNS    : 1
#XUNITS      : eV
#YUNITS      : counts
#DATATYPE    : Y
#XPERCHAN    : 9.99778
#OFFSET      : 1.69135
#BEAMKV      : 20
#SIGNALTYPE  : EDS
#ELEVANGLE   : 35
#AZIMANGLE   : 0
#LIVETIME    : 239.877
#REALTIME    : 255.658
#PROBECUR    : 1.02809
#TAUWIND     : 0
#TDEADLYR    : 0
#TACTLYR     : 0.045
#TALWIND     : 0.025
#CHOFFSET    : 0.0
#XLABEL      : Energy (eV)
#YLABEL      : Counts
#XPOSITION   : -2.63368
#YPOSITION   : 1.85075
#ZPOSITION   : 30.9284
#EDSDET      : SD
##SPECIMEN   : SPI MM1 Fluorapatite[5][all]
##D2STDCMP   : Fluorapatite,(O:35.868),(F:3.5492),(P:23.146),(Ca:37.4368)
##DET_HASH   : 12273538-fd48-a23f-0a19-f1e6fa85caef
##CALIB_HASH : 6abaa72c-aa41-8738-0be9-f592914732f3
##WORKING    : 15.0 mm
##DET_NAME   : EDAX All
##DET_MODE   : MediumLE
#SPECTRUM    :
18,
264,
18129,
3087,
21230,
6342,
2826,
3518,
3848,
4306,
4646,
5014,
5487,
7653,
63504,
18926,
4194,
3693,
3365,
3177,
3031,
2926,
2969,
2858,
2718,
3575,
98533,
33349,
6406,
16630,
1901,
1761,
1731,
1818,
1714,
1707,
1709,
1645,
1620,
1434,
1534,
1687,
1364,
1321,
1258,
1307,
1269,
1133,
1121,
1041,
999,
931,
1042,
1090,
911,
940,
845,
851,
809,
793,
776,
704,
663,
666,
669,
642,
591,
562,
584,
555,
542,
497,
523,
503,
450,
477,
452,
395,
410,
370,
359,
364,
340,
352,
314,
301,
282,
299,
281,
262,
255,
263,
243,
240,
228,
173,
178,
180,
196,
183,
145,
146,
149,
121,
114,
116,
105,
102,
87,
102,
82,
77,
91,
98,
71,
67,
66,
56,
40,
49,
46,
47,
37,
33,
48,
24,
21,
20,
20,
21,
17,
15,
17,
15,
15,
11,
4,
8,
6,
0,
3,
3,
0,
1,
1,
0,
0,
1,
0,
0,
2,
0,
0,
0,
0,
1,
0,
0,
0,
0,
0,
1,
0,
0,
0,
0,
0,
0,
0,
0,
0,
0,
0,
0,
0,
0,
0,
0,
0,
0,
0,
0,
0,
0,
0,
0,
0,
0,
0,
0,
0,
0,
0,
0,
0,
0,
0,
0,
0,
0,
0,
0,
0,
0,
0,
0,
0,
0,
0,
0,
0,
0,
0,
0,
0,
0,
0,
0,
0,
0,
0,
0,
0,
0,
0,
0,
0,
0,
0,
0,
0,
0,
0,
0,
0,
0,
0,
0,
0,
0,
0,
0,
0,
0,
0,
0,
0,
0,
0,
0,
0,
0,
0,
0,
0,
0,
0,
0,
0,
0,
0,
0,
0,
0,
0,
0,
0,
0,
0,
0,
0,
0,
0,
0,
0,
0,
0,
0,
0,
0,
0,
0,
0,
0,
0,
0,
0,
0,
0,
0,
0,
0,
0,
0,
#ENDOFDATA   :