File: N132962/Quantification/MMM1/SPI MM1 Hematite[4][4].msa
#FORMAT      : EMSA/MAS Spectral Data File
#VERSION     : 1.0
#TITLE       : SPI MM1dup Hematite[4][all]
#DATE        : 12-MAR-2025
#TIME        : 16:51
#OWNER       : Unknown
#NPOINTS     : 4096
#NCOLUMNS    : 1
#XUNITS      : eV
#YUNITS      : counts
#DATATYPE    : Y
#XPERCHAN    : 9.99778
#OFFSET      : 1.69135
#BEAMKV      : 20
#SIGNALTYPE  : EDS
#ELEVANGLE   : 35
#AZIMANGLE   : 0
#LIVETIME    : 239.7721
#REALTIME    : 256.616
#PROBECUR    : 1.026781
#TAUWIND     : 0
#TDEADLYR    : 0
#TACTLYR     : 0.045
#TALWIND     : 0.025
#CHOFFSET    : 0.0
#XLABEL      : Energy (eV)
#YLABEL      : Counts
#XPOSITION   : 3.64475
#YPOSITION   : 4.21664
#ZPOSITION   : 31.03608
#EDSDET      : SD
##SPECIMEN   : SPI MM1dup Hematite[4][all]
##D2STDCMP   : Hematite,(O:30.0574),(Fe:69.9426),5.0
##DET_HASH   : 12273538-fd48-a23f-0a19-f1e6fa85caef
##CALIB_HASH : 6abaa72c-aa41-8738-0be9-f592914732f3
##WORKING    : 15.0 mm
##DET_NAME   : EDAX All
##DET_MODE   : MediumLE
#SPECTRUM    :
25,
301,
11328,
9784,
71139,
54324,
2237,
2352,
2663,
3305,
3607,
4101,
4552,
4681,
4126,
4367,
4203,
4268,
4308,
4253,
3894,
3947,
3735,
3696,
3647,
3435,
3378,
3244,
3274,
3086,
2982,
2859,
2740,
3099,
2674,
2498,
2423,
2370,
2335,
2287,
2183,
2079,
2114,
2057,
2303,
34337,
105898,
2912,
1757,
2248,
13875,
7835,
1225,
1265,
1260,
1121,
1138,
1120,
1101,
1072,
1043,
959,
935,
1004,
889,
885,
864,
815,
850,
731,
800,
700,
738,
709,
693,
646,
617,
579,
605,
597,
556,
530,
465,
484,
479,
446,
429,
410,
415,
374,
351,
416,
370,
322,
292,
305,
286,
263,
270,
268,
240,
238,
198,
194,
208,
178,
186,
167,
178,
148,
134,
137,
126,
107,
114,
122,
88,
103,
73,
81,
85,
79,
69,
60,
65,
39,
53,
51,
30,
38,
39,
24,
29,
21,
29,
14,
13,
14,
16,
4,
4,
7,
4,
1,
2,
1,
0,
1,
0,
2,
0,
1,
1,
0,
0,
0,
0,
0,
0,
2,
0,
0,
1,
0,
0,
0,
0,
0,
0,
0,
0,
1,
1,
0,
0,
0,
2,
1,
0,
0,
0,
0,
0,
0,
0,
0,
0,
0,
0,
0,
0,
0,
0,
0,
0,
0,
0,
0,
0,
0,
0,
0,
0,
0,
0,
0,
0,
0,
0,
0,
0,
0,
0,
0,
0,
0,
0,
0,
0,
0,
0,
0,
0,
0,
0,
0,
0,
0,
0,
0,
0,
0,
0,
0,
0,
0,
0,
0,
0,
0,
0,
0,
0,
0,
0,
0,
0,
0,
0,
0,
0,
0,
0,
0,
0,
0,
0,
0,
0,
0,
0,
0,
0,
0,
0,
0,
0,
0,
0,
0,
0,
0,
0,
0,
0,
0,
0,
0,
0,
0,
0,
0,
0,
0,
0,
0,
0,
0,
0,
0,
0,
0,
0,
0,
#ENDOFDATA   :