File: N132962/Quantification/MMM1/SPI MM1 Fluorapatite[1][4].msa
#FORMAT      : EMSA/MAS Spectral Data File
#VERSION     : 1.0
#TITLE       : SPI MM1 Fluorapatite[1][all]
#DATE        : 11-MAR-2025
#TIME        : 14:37
#OWNER       : Unknown
#NPOINTS     : 4096
#NCOLUMNS    : 1
#XUNITS      : eV
#YUNITS      : counts
#DATATYPE    : Y
#XPERCHAN    : 9.99778
#OFFSET      : 1.69135
#BEAMKV      : 20
#SIGNALTYPE  : EDS
#ELEVANGLE   : 35
#AZIMANGLE   : 0
#LIVETIME    : 239.873
#REALTIME    : 255.661
#PROBECUR    : 1.02809
#TAUWIND     : 0
#TDEADLYR    : 0
#TACTLYR     : 0.045
#TALWIND     : 0.025
#CHOFFSET    : 0.0
#XLABEL      : Energy (eV)
#YLABEL      : Counts
#XPOSITION   : -2.5772
#YPOSITION   : 1.89486
#ZPOSITION   : 30.9284
#EDSDET      : SD
##SPECIMEN   : SPI MM1 Fluorapatite[1][all]
##D2STDCMP   : Fluorapatite,(O:35.868),(F:3.5492),(P:23.146),(Ca:37.4368)
##DET_HASH   : 12273538-fd48-a23f-0a19-f1e6fa85caef
##CALIB_HASH : 6abaa72c-aa41-8738-0be9-f592914732f3
##WORKING    : 15.0 mm
##DET_NAME   : EDAX All
##DET_MODE   : MediumLE
#SPECTRUM    :
25,
279,
18304,
3176,
20995,
6538,
2817,
3477,
3866,
4460,
4682,
4967,
5384,
7540,
63417,
18660,
4165,
3699,
3178,
3127,
3122,
2958,
2919,
2964,
2757,
3619,
99331,
33372,
6419,
16372,
1849,
1799,
1674,
1790,
1707,
1732,
1664,
1581,
1547,
1438,
1483,
1630,
1401,
1318,
1209,
1225,
1267,
1148,
1096,
1014,
1053,
942,
990,
1080,
935,
871,
832,
793,
808,
798,
709,
672,
729,
685,
604,
586,
602,
578,
566,
547,
559,
496,
500,
493,
473,
440,
408,
396,
417,
412,
375,
352,
347,
325,
296,
318,
315,
309,
283,
222,
241,
224,
245,
229,
209,
188,
202,
181,
165,
185,
150,
165,
145,
149,
128,
106,
96,
117,
101,
86,
88,
82,
76,
59,
67,
71,
65,
58,
56,
41,
57,
37,
42,
35,
33,
37,
26,
27,
23,
17,
15,
15,
19,
15,
9,
17,
16,
5,
4,
2,
4,
3,
1,
0,
0,
0,
0,
0,
1,
0,
0,
0,
0,
1,
0,
0,
0,
1,
0,
0,
0,
0,
0,
0,
0,
0,
0,
0,
0,
0,
0,
0,
0,
0,
0,
0,
0,
0,
0,
0,
0,
0,
0,
0,
0,
0,
0,
0,
0,
0,
0,
0,
0,
0,
0,
0,
0,
0,
0,
0,
0,
0,
0,
0,
0,
0,
0,
0,
0,
0,
0,
0,
0,
0,
0,
0,
0,
0,
0,
0,
0,
0,
0,
0,
0,
0,
0,
0,
0,
0,
0,
0,
0,
0,
0,
0,
0,
0,
0,
0,
0,
0,
0,
0,
0,
0,
0,
0,
0,
0,
0,
0,
0,
0,
0,
0,
0,
0,
0,
0,
0,
0,
0,
0,
0,
0,
0,
0,
0,
0,
0,
0,
0,
0,
0,
0,
0,
0,
0,
0,
0,
0,
0,
0,
0,
0,
0,
0,
0,
0,
0,
0,
0,
0,
#ENDOFDATA   :