File: N132962/Quantification/MMM1/SPI MM1 Anhydrite[5][4].msa
#FORMAT      : EMSA/MAS Spectral Data File
#VERSION     : 1.0
#TITLE       : SPI MM1 Anhydrite[5][all]
#DATE        : 11-MAR-2025
#TIME        : 13:49
#OWNER       : Unknown
#NPOINTS     : 4096
#NCOLUMNS    : 1
#XUNITS      : eV
#YUNITS      : counts
#DATATYPE    : Y
#XPERCHAN    : 9.99778
#OFFSET      : 1.69135
#BEAMKV      : 20
#SIGNALTYPE  : EDS
#ELEVANGLE   : 35
#AZIMANGLE   : 0
#LIVETIME    : 239.872
#REALTIME    : 255.074
#PROBECUR    : 1.02902
#TAUWIND     : 0
#TDEADLYR    : 0
#TACTLYR     : 0.045
#TALWIND     : 0.025
#CHOFFSET    : 0.0
#XLABEL      : Energy (eV)
#YLABEL      : Counts
#XPOSITION   : 4.95966
#YPOSITION   : -5.04733
#ZPOSITION   : 30.9284
#EDSDET      : SD
##SPECIMEN   : SPI MM1 Anhydrite[5][all]
##D2STDCMP   : Anhydrite,(O:47.0085),(S:23.5529),(Ca:29.4387),5.0
##DET_HASH   : 12273538-fd48-a23f-0a19-f1e6fa85caef
##CALIB_HASH : 6abaa72c-aa41-8738-0be9-f592914732f3
##WORKING    : 15.0 mm
##DET_NAME   : EDAX All
##DET_MODE   : MediumLE
#SPECTRUM    :
35,
686,
11655,
3356,
30609,
2216,
2646,
3068,
3546,
4024,
4540,
4760,
4897,
7146,
5989,
4493,
49884,
41961,
7075,
2731,
2869,
2667,
2593,
2614,
2398,
3107,
71323,
24278,
5024,
12330,
1862,
1612,
1619,
1735,
1556,
1476,
1388,
1371,
1339,
1421,
1267,
1257,
1234,
1351,
1160,
1173,
1162,
1110,
1009,
940,
1006,
949,
912,
962,
852,
795,
786,
733,
733,
741,
654,
670,
704,
605,
622,
564,
550,
588,
542,
537,
460,
474,
470,
477,
427,
372,
367,
358,
339,
381,
378,
319,
314,
267,
286,
298,
299,
273,
264,
235,
242,
211,
176,
203,
171,
196,
145,
157,
154,
140,
151,
128,
114,
121,
112,
124,
96,
83,
81,
77,
73,
64,
72,
65,
65,
71,
55,
42,
50,
52,
41,
37,
29,
37,
38,
26,
20,
22,
21,
21,
18,
14,
18,
12,
10,
11,
5,
5,
6,
6,
6,
0,
1,
0,
0,
0,
0,
0,
0,
0,
0,
0,
0,
0,
1,
0,
0,
0,
0,
0,
0,
0,
0,
0,
0,
0,
0,
0,
0,
0,
0,
0,
0,
0,
1,
0,
0,
0,
0,
0,
0,
0,
0,
0,
0,
0,
0,
0,
0,
0,
0,
0,
0,
0,
0,
0,
0,
0,
0,
0,
0,
0,
0,
0,
0,
1,
0,
0,
0,
0,
0,
0,
0,
0,
0,
0,
0,
0,
0,
0,
0,
0,
0,
0,
0,
0,
0,
0,
0,
0,
0,
0,
0,
0,
0,
0,
0,
0,
0,
0,
0,
0,
0,
0,
0,
0,
0,
0,
0,
0,
0,
0,
0,
0,
0,
0,
0,
0,
0,
0,
0,
0,
0,
0,
0,
0,
0,
0,
0,
0,
0,
0,
0,
0,
0,
0,
0,
0,
0,
0,
0,
0,
0,
0,
0,
0,
0,
0,
0,
0,
0,
0,
0,
0,
#ENDOFDATA   :