File: N132962/Quantification/MMM1/SPI MM1 Calcite[4][4].msa
#FORMAT      : EMSA/MAS Spectral Data File
#VERSION     : 1.0
#TITLE       : SPI MM1 Calcite[4][all]
#DATE        : 11-MAR-2025
#TIME        : 14:16
#OWNER       : Unknown
#NPOINTS     : 4096
#NCOLUMNS    : 1
#XUNITS      : eV
#YUNITS      : counts
#DATATYPE    : Y
#XPERCHAN    : 9.99778
#OFFSET      : 1.69135
#BEAMKV      : 20
#SIGNALTYPE  : EDS
#ELEVANGLE   : 35
#AZIMANGLE   : 0
#LIVETIME    : 239.919
#REALTIME    : 252.201
#PROBECUR    : 1.02902
#TAUWIND     : 0
#TDEADLYR    : 0
#TACTLYR     : 0.045
#TALWIND     : 0.025
#CHOFFSET    : 0.0
#XLABEL      : Energy (eV)
#YLABEL      : Counts
#XPOSITION   : 0.11014
#YPOSITION   : -2.95603
#ZPOSITION   : 30.9284
#EDSDET      : SD
##SPECIMEN   : SPI MM1 Calcite[4][all]
##D2STDCMP   : Calcite,(C:12.0003),(O:47.9565),(Ca:40.0432),5.0
##DET_HASH   : 12273538-fd48-a23f-0a19-f1e6fa85caef
##CALIB_HASH : 6abaa72c-aa41-8738-0be9-f592914732f3
##WORKING    : 15.0 mm
##DET_NAME   : EDAX All
##DET_MODE   : MediumLE
#SPECTRUM    :
28,
262,
38624,
2874,
23480,
1636,
2055,
2476,
3062,
3581,
3749,
4160,
4322,
4397,
5709,
3626,
3644,
3350,
3146,
3035,
2963,
2884,
2864,
2791,
2537,
3345,
103594,
34702,
6402,
16889,
1638,
1452,
1387,
1364,
1375,
1336,
1239,
1288,
1250,
1198,
1216,
1142,
1234,
1093,
1021,
1045,
1073,
951,
886,
904,
866,
863,
817,
914,
758,
725,
689,
655,
627,
634,
659,
591,
532,
568,
519,
459,
525,
491,
467,
458,
450,
437,
410,
433,
401,
364,
392,
340,
314,
318,
328,
286,
297,
274,
260,
240,
233,
226,
236,
188,
205,
187,
177,
157,
183,
168,
132,
146,
139,
128,
133,
105,
92,
104,
100,
98,
78,
85,
66,
65,
55,
59,
74,
54,
54,
50,
41,
46,
39,
29,
42,
33,
41,
31,
29,
22,
19,
15,
23,
20,
14,
15,
11,
5,
9,
6,
4,
8,
9,
5,
1,
0,
2,
0,
0,
0,
0,
1,
0,
0,
0,
1,
1,
0,
0,
0,
0,
0,
0,
0,
0,
0,
1,
0,
0,
0,
0,
0,
0,
0,
0,
0,
0,
0,
0,
0,
0,
0,
0,
0,
0,
0,
0,
0,
0,
0,
0,
0,
0,
0,
0,
0,
0,
0,
0,
0,
0,
0,
0,
0,
0,
0,
0,
0,
0,
0,
0,
0,
0,
0,
0,
0,
0,
0,
0,
0,
0,
0,
0,
0,
0,
0,
0,
0,
0,
0,
0,
0,
0,
0,
0,
0,
0,
0,
0,
0,
0,
0,
0,
0,
0,
0,
0,
0,
0,
0,
0,
0,
0,
0,
0,
0,
0,
0,
0,
0,
0,
0,
0,
0,
0,
0,
0,
0,
0,
0,
0,
0,
0,
0,
0,
0,
0,
0,
0,
0,
0,
0,
0,
0,
0,
0,
0,
0,
0,
0,
0,
0,
0,
0,
0,
0,
0,
0,
#ENDOFDATA   :