File: N132962/Quantification/MMM1/SPI MM1 Kaersutite[3][4].msa
#FORMAT      : EMSA/MAS Spectral Data File
#VERSION     : 1.0
#TITLE       : SPI MM1dup Kaersutite[3][all]
#DATE        : 12-MAR-2025
#TIME        : 16:23
#OWNER       : Unknown
#NPOINTS     : 4096
#NCOLUMNS    : 1
#XUNITS      : eV
#YUNITS      : counts
#DATATYPE    : Y
#XPERCHAN    : 9.99778
#OFFSET      : 1.69135
#BEAMKV      : 20
#SIGNALTYPE  : EDS
#ELEVANGLE   : 35
#AZIMANGLE   : 0
#LIVETIME    : 239.7545
#REALTIME    : 254.38
#PROBECUR    : 1.02709
#TAUWIND     : 0
#TDEADLYR    : 0
#TACTLYR     : 0.045
#TALWIND     : 0.025
#CHOFFSET    : 0.0
#XLABEL      : Energy (eV)
#YLABEL      : Counts
#XPOSITION   : -1.62254
#YPOSITION   : 3.58434
#ZPOSITION   : 31.03608
#EDSDET      : SD
##SPECIMEN   : SPI MM1dup Kaersutite[3][all]
##DET_HASH   : 12273538-fd48-a23f-0a19-f1e6fa85caef
##CALIB_HASH : 6abaa72c-aa41-8738-0be9-f592914732f3
##WORKING    : 15.0 mm
##DET_NAME   : EDAX All
##DET_MODE   : MediumLE
#SPECTRUM    :
23,
208,
9555,
5926,
43376,
8710,
2542,
4926,
4161,
53614,
6777,
20412,
42267,
21129,
3081,
2647,
2990,
2769,
2842,
2765,
2700,
2617,
2449,
3021,
4880,
2545,
21932,
8366,
2747,
4815,
1809,
1858,
10244,
2569,
1767,
2736,
1625,
1411,
1352,
1401,
1315,
1202,
1428,
1175,
1129,
4940,
13320,
1150,
960,
972,
2337,
1640,
825,
834,
794,
764,
804,
731,
732,
690,
654,
643,
602,
614,
576,
531,
522,
489,
469,
455,
480,
425,
431,
421,
379,
360,
377,
361,
364,
304,
316,
273,
276,
295,
242,
281,
267,
204,
251,
213,
220,
186,
177,
200,
169,
154,
162,
142,
150,
121,
137,
108,
106,
111,
101,
96,
110,
83,
75,
69,
64,
64,
62,
59,
61,
56,
39,
46,
46,
38,
29,
45,
38,
32,
26,
12,
36,
26,
17,
21,
16,
14,
10,
7,
10,
9,
6,
5,
4,
3,
2,
1,
1,
1,
1,
1,
0,
0,
0,
0,
0,
0,
0,
0,
0,
0,
0,
0,
0,
0,
0,
1,
1,
0,
0,
0,
0,
0,
0,
0,
1,
0,
0,
0,
1,
0,
0,
0,
0,
0,
0,
0,
0,
0,
0,
0,
0,
0,
0,
0,
0,
0,
0,
0,
0,
0,
0,
0,
0,
0,
0,
0,
0,
0,
0,
0,
0,
0,
0,
0,
0,
0,
0,
0,
0,
0,
0,
0,
0,
0,
0,
0,
0,
0,
0,
0,
0,
0,
0,
0,
0,
0,
0,
0,
0,
0,
0,
0,
0,
0,
0,
0,
0,
0,
0,
0,
0,
0,
0,
0,
0,
0,
0,
0,
0,
0,
0,
0,
0,
0,
0,
0,
0,
0,
0,
0,
0,
0,
0,
0,
0,
0,
0,
0,
0,
0,
0,
0,
0,
0,
0,
0,
0,
0,
0,
0,
0,
0,
0,
0,
0,
0,
0,
0,
#ENDOFDATA   :