File: N132962/Quantification/MMM1/SPI MM1 Kyanite[3][4].msa
#FORMAT      : EMSA/MAS Spectral Data File
#VERSION     : 1.0
#TITLE       : SPI MM1dup Kyanite[3][all]
#DATE        : 12-MAR-2025
#TIME        : 16:14
#OWNER       : Unknown
#NPOINTS     : 4096
#NCOLUMNS    : 1
#XUNITS      : eV
#YUNITS      : counts
#DATATYPE    : Y
#XPERCHAN    : 9.99778
#OFFSET      : 1.69135
#BEAMKV      : 20
#SIGNALTYPE  : EDS
#ELEVANGLE   : 35
#AZIMANGLE   : 0
#LIVETIME    : 239.745
#REALTIME    : 256.557
#PROBECUR    : 1.02709
#TAUWIND     : 0
#TDEADLYR    : 0
#TACTLYR     : 0.045
#TALWIND     : 0.025
#CHOFFSET    : 0.0
#XLABEL      : Energy (eV)
#YLABEL      : Counts
#XPOSITION   : -4.24201
#YPOSITION   : 4.11521
#ZPOSITION   : 31.03608
#EDSDET      : SD
##SPECIMEN   : SPI MM1dup Kyanite[3][all]
##DET_HASH   : 12273538-fd48-a23f-0a19-f1e6fa85caef
##CALIB_HASH : 6abaa72c-aa41-8738-0be9-f592914732f3
##WORKING    : 15.0 mm
##DET_NAME   : EDAX All
##DET_MODE   : MediumLE
#SPECTRUM    :
22,
179,
7605,
6383,
68139,
2085,
2533,
3396,
3863,
4949,
22987,
105467,
32450,
15786,
2504,
2223,
2438,
2204,
2104,
2126,
2017,
2566,
1992,
2398,
1854,
1856,
1749,
1683,
1629,
1533,
1555,
1509,
1420,
1387,
1393,
1322,
1208,
1238,
1150,
1181,
1022,
1085,
1027,
977,
947,
1000,
1077,
776,
853,
781,
792,
728,
700,
669,
651,
671,
597,
611,
570,
533,
523,
522,
548,
498,
427,
481,
429,
449,
427,
398,
430,
385,
367,
341,
323,
314,
333,
307,
287,
257,
267,
261,
253,
236,
227,
207,
225,
190,
174,
200,
173,
150,
141,
168,
158,
121,
165,
116,
96,
103,
106,
85,
106,
93,
99,
68,
82,
76,
62,
58,
65,
60,
60,
46,
45,
66,
30,
45,
31,
36,
26,
23,
28,
21,
20,
18,
11,
17,
13,
15,
11,
10,
7,
9,
10,
9,
4,
3,
6,
2,
0,
2,
0,
0,
0,
0,
0,
0,
1,
0,
0,
0,
0,
0,
0,
0,
0,
0,
0,
0,
0,
0,
0,
0,
0,
0,
0,
0,
0,
0,
0,
0,
0,
0,
0,
0,
0,
0,
0,
0,
0,
0,
0,
0,
0,
0,
0,
0,
0,
0,
0,
0,
0,
0,
0,
0,
0,
0,
0,
0,
0,
0,
0,
0,
0,
0,
0,
0,
0,
0,
0,
0,
0,
0,
0,
0,
0,
0,
0,
0,
0,
0,
0,
0,
0,
0,
0,
0,
0,
0,
0,
0,
0,
0,
0,
0,
0,
0,
0,
0,
0,
0,
0,
0,
0,
0,
0,
0,
0,
0,
0,
0,
0,
0,
0,
0,
0,
0,
0,
0,
0,
0,
0,
0,
0,
0,
0,
0,
0,
0,
0,
0,
0,
0,
0,
0,
0,
0,
0,
0,
0,
0,
0,
0,
0,
0,
0,
0,
0,
0,
0,
0,
0,
0,
#ENDOFDATA   :