File: N132962/Quantification/MMM1/SPI MM1 Bustamite[7][4].msa
#FORMAT      : EMSA/MAS Spectral Data File
#VERSION     : 1.0
#TITLE       : SPI MM1 Bustamite[7][all]
#DATE        : 11-MAR-2025
#TIME        : 14:10
#OWNER       : Unknown
#NPOINTS     : 4096
#NCOLUMNS    : 1
#XUNITS      : eV
#YUNITS      : counts
#DATATYPE    : Y
#XPERCHAN    : 9.99778
#OFFSET      : 1.69135
#BEAMKV      : 20
#SIGNALTYPE  : EDS
#ELEVANGLE   : 35
#AZIMANGLE   : 0
#LIVETIME    : 239.9274
#REALTIME    : 255.791
#PROBECUR    : 1.02902
#TAUWIND     : 0
#TDEADLYR    : 0
#TACTLYR     : 0.045
#TALWIND     : 0.025
#CHOFFSET    : 0.0
#XLABEL      : Energy (eV)
#YLABEL      : Counts
#XPOSITION   : 2.69589
#YPOSITION   : -2.76034
#ZPOSITION   : 30.9284
#EDSDET      : SD
##SPECIMEN   : SPI MM1 Bustamite[7][all]
##D2STDCMP   : Bustamite,(O:38.8357),(Si:22.7243),(Ca:16.2141),(Mn:22.2259),6.0
##DET_HASH   : 12273538-fd48-a23f-0a19-f1e6fa85caef
##CALIB_HASH : 6abaa72c-aa41-8738-0be9-f592914732f3
##WORKING    : 15.0 mm
##DET_NAME   : EDAX All
##DET_MODE   : MediumLE
#SPECTRUM    :
26,
163,
11083,
4947,
42092,
7023,
2406,
3104,
3342,
4733,
4423,
5402,
56288,
27060,
3901,
3279,
3603,
3261,
3221,
3132,
2950,
3011,
2914,
2935,
2759,
3110,
36958,
13211,
3840,
7358,
2178,
1946,
2026,
1919,
1851,
1799,
1730,
1673,
1627,
1765,
1611,
2616,
39974,
4683,
1431,
4233,
13972,
2702,
1165,
1136,
2014,
1549,
1021,
1023,
1116,
956,
887,
835,
859,
799,
812,
827,
812,
712,
685,
651,
598,
643,
639,
607,
598,
511,
545,
547,
506,
487,
431,
447,
425,
444,
408,
401,
362,
351,
344,
313,
320,
293,
321,
281,
277,
253,
224,
216,
218,
226,
199,
192,
172,
189,
168,
141,
131,
145,
141,
128,
138,
105,
94,
105,
94,
75,
85,
83,
75,
80,
67,
54,
66,
50,
52,
49,
37,
40,
41,
38,
37,
26,
29,
27,
24,
14,
9,
19,
10,
10,
10,
10,
10,
6,
1,
1,
0,
0,
0,
1,
0,
2,
0,
0,
0,
0,
0,
0,
0,
0,
1,
0,
0,
0,
0,
0,
2,
0,
0,
0,
0,
0,
0,
0,
0,
0,
0,
0,
0,
0,
0,
0,
0,
0,
0,
0,
0,
0,
0,
0,
0,
0,
0,
0,
0,
0,
0,
0,
0,
0,
0,
0,
0,
0,
0,
0,
0,
0,
0,
0,
0,
0,
0,
0,
0,
0,
0,
0,
0,
0,
0,
0,
0,
0,
0,
0,
0,
0,
0,
0,
0,
0,
0,
0,
0,
0,
0,
0,
0,
0,
0,
0,
0,
0,
0,
0,
0,
0,
0,
0,
0,
0,
0,
0,
0,
0,
0,
0,
0,
0,
0,
0,
0,
0,
0,
0,
0,
0,
0,
0,
0,
0,
0,
0,
0,
0,
0,
0,
0,
0,
0,
0,
0,
0,
0,
0,
0,
0,
0,
0,
0,
0,
0,
0,
0,
0,
0,
0,
#ENDOFDATA   :