File: N132962/Quantification/MMM1/SPI MM1 Almandine[2][4].msa
#FORMAT      : EMSA/MAS Spectral Data File
#VERSION     : 1.0
#TITLE       : SPI MM1 Almandine[2][all]
#DATE        : 11-MAR-2025
#TIME        : 13:00
#OWNER       : Unknown
#NPOINTS     : 4096
#NCOLUMNS    : 1
#XUNITS      : eV
#YUNITS      : counts
#DATATYPE    : Y
#XPERCHAN    : 9.99778
#OFFSET      : 1.69135
#BEAMKV      : 20
#SIGNALTYPE  : EDS
#ELEVANGLE   : 35
#AZIMANGLE   : 0
#LIVETIME    : 239.849
#REALTIME    : 255.276
#PROBECUR    : 1.02699
#TAUWIND     : 0
#TDEADLYR    : 0
#TACTLYR     : 0.045
#TALWIND     : 0.025
#CHOFFSET    : 0.0
#XLABEL      : Energy (eV)
#YLABEL      : Counts
#XPOSITION   : 0.42364
#YPOSITION   : -7.88032
#ZPOSITION   : 30.9284
#EDSDET      : SD
##SPECIMEN   : SPI MM1 Almandine[2][all]
##D2STDCMP   : Almandine,(O:38.5719),(Al:10.8416),(Si:16.9275),(Fe:33.6591),4.05
##DET_HASH   : 12273538-fd48-a23f-0a19-f1e6fa85caef
##CALIB_HASH : 6abaa72c-aa41-8738-0be9-f592914732f3
##WORKING    : 15.0 mm
##DET_NAME   : EDAX All
##DET_MODE   : MediumLE
#SPECTRUM    :
28,
177,
8863,
6243,
60114,
15294,
2451,
3012,
3835,
41900,
8938,
31439,
39566,
19355,
2874,
2665,
3094,
2743,
2769,
2687,
2765,
2697,
2487,
2607,
2365,
2525,
9311,
4468,
2331,
3204,
1963,
1918,
1859,
1839,
1709,
1685,
1573,
1592,
1381,
1578,
1343,
1314,
2305,
1422,
1292,
9205,
27493,
1395,
1060,
1156,
4037,
2455,
902,
889,
823,
774,
793,
788,
799,
714,
667,
661,
646,
621,
552,
598,
574,
559,
537,
490,
531,
496,
426,
440,
451,
421,
365,
374,
350,
371,
350,
354,
318,
281,
292,
287,
277,
268,
265,
247,
235,
232,
214,
192,
197,
176,
196,
163,
164,
151,
148,
133,
109,
140,
127,
124,
106,
94,
89,
101,
76,
82,
58,
60,
56,
59,
60,
53,
49,
44,
47,
27,
45,
38,
35,
32,
28,
29,
27,
23,
21,
19,
13,
14,
11,
14,
6,
6,
3,
4,
4,
3,
1,
1,
1,
1,
0,
0,
0,
1,
1,
0,
0,
0,
1,
0,
0,
0,
0,
0,
0,
0,
0,
0,
0,
0,
0,
0,
0,
0,
0,
0,
0,
0,
0,
0,
0,
0,
0,
0,
0,
0,
0,
0,
0,
0,
0,
1,
0,
0,
0,
0,
0,
0,
0,
0,
0,
0,
0,
0,
0,
0,
0,
0,
0,
0,
0,
0,
0,
0,
0,
0,
0,
0,
0,
0,
0,
0,
0,
0,
0,
0,
0,
0,
0,
0,
0,
0,
0,
0,
0,
0,
0,
0,
0,
0,
0,
0,
0,
0,
0,
0,
0,
0,
0,
0,
0,
0,
0,
0,
0,
0,
0,
0,
0,
0,
0,
0,
0,
0,
0,
0,
0,
0,
0,
0,
0,
0,
0,
0,
0,
0,
0,
0,
0,
0,
0,
0,
0,
0,
0,
0,
0,
0,
0,
0,
0,
0,
0,
0,
0,
0,
0,
0,
#ENDOFDATA   :