File: N132962/Quantification/MMM1/SPI MM1 Barite[0][4].msa
#FORMAT      : EMSA/MAS Spectral Data File
#VERSION     : 1.0
#TITLE       : SPI MM1 Barite[0][all]
#DATE        : 11-MAR-2025
#TIME        : 13:25
#OWNER       : Unknown
#NPOINTS     : 4096
#NCOLUMNS    : 1
#XUNITS      : eV
#YUNITS      : counts
#DATATYPE    : Y
#XPERCHAN    : 9.99778
#OFFSET      : 1.69135
#BEAMKV      : 20
#SIGNALTYPE  : EDS
#ELEVANGLE   : 35
#AZIMANGLE   : 0
#LIVETIME    : 239.875
#REALTIME    : 258.922
#PROBECUR    : 1.02853
#TAUWIND     : 0
#TDEADLYR    : 0
#TACTLYR     : 0.045
#TALWIND     : 0.025
#CHOFFSET    : 0.0
#XLABEL      : Energy (eV)
#YLABEL      : Counts
#XPOSITION   : -0.37608
#YPOSITION   : -5.02021
#ZPOSITION   : 30.9284
#EDSDET      : SD
##SPECIMEN   : SPI MM1 Barite[0][all]
##DET_HASH   : 12273538-fd48-a23f-0a19-f1e6fa85caef
##CALIB_HASH : 6abaa72c-aa41-8738-0be9-f592914732f3
##WORKING    : 15.0 mm
##DET_NAME   : EDAX All
##DET_MODE   : MediumLE
#SPECTRUM    :
22,
1057,
13797,
8181,
55120,
5982,
5250,
6034,
4348,
4324,
4693,
5189,
5676,
6326,
5583,
5781,
27972,
24469,
7330,
5166,
5169,
4821,
5021,
4805,
4595,
4620,
4337,
4321,
6489,
4769,
4191,
9301,
83370,
5160,
18967,
26007,
6142,
15764,
3290,
4830,
5192,
3890,
3377,
2655,
2316,
2386,
2516,
2193,
2167,
2122,
2098,
2034,
1990,
2035,
2046,
1840,
1721,
1699,
1738,
1727,
1647,
1580,
1537,
1515,
1544,
1509,
1428,
1390,
1341,
1271,
1285,
1245,
1218,
1139,
1099,
1080,
1061,
1034,
1016,
971,
926,
871,
805,
862,
819,
789,
742,
751,
702,
627,
589,
602,
562,
598,
530,
508,
498,
471,
455,
443,
444,
374,
381,
336,
366,
342,
292,
310,
276,
261,
265,
240,
258,
182,
226,
178,
181,
174,
164,
144,
146,
128,
137,
121,
104,
93,
87,
77,
72,
70,
64,
63,
56,
49,
49,
26,
36,
36,
24,
18,
13,
5,
6,
1,
2,
2,
2,
1,
1,
1,
0,
1,
1,
1,
0,
1,
0,
1,
0,
0,
2,
3,
0,
1,
0,
0,
1,
0,
0,
0,
0,
0,
0,
0,
0,
1,
0,
0,
0,
1,
0,
1,
0,
0,
0,
0,
0,
0,
0,
0,
0,
0,
0,
0,
0,
0,
0,
0,
0,
0,
0,
0,
0,
0,
0,
0,
0,
0,
0,
0,
0,
0,
0,
0,
0,
0,
0,
0,
0,
0,
0,
0,
0,
0,
0,
0,
0,
0,
0,
0,
0,
0,
0,
1,
0,
0,
0,
0,
0,
0,
0,
0,
0,
0,
0,
0,
0,
0,
0,
0,
0,
0,
0,
0,
0,
0,
0,
0,
0,
0,
0,
0,
0,
0,
0,
0,
0,
0,
0,
0,
0,
0,
0,
0,
0,
0,
0,
0,
0,
0,
0,
0,
0,
0,
0,
0,
0,
0,
0,
0,
0,
0,
0,
0,
#ENDOFDATA   :