File: N132962/Quantification/MMM1/SPI MM1 Fluorapatite[2][4].msa
#FORMAT      : EMSA/MAS Spectral Data File
#VERSION     : 1.0
#TITLE       : SPI MM1 Fluorapatite[2][all]
#DATE        : 11-MAR-2025
#TIME        : 14:38
#OWNER       : Unknown
#NPOINTS     : 4096
#NCOLUMNS    : 1
#XUNITS      : eV
#YUNITS      : counts
#DATATYPE    : Y
#XPERCHAN    : 9.99778
#OFFSET      : 1.69135
#BEAMKV      : 20
#SIGNALTYPE  : EDS
#ELEVANGLE   : 35
#AZIMANGLE   : 0
#LIVETIME    : 239.878
#REALTIME    : 255.658
#PROBECUR    : 1.02809
#TAUWIND     : 0
#TDEADLYR    : 0
#TACTLYR     : 0.045
#TALWIND     : 0.025
#CHOFFSET    : 0.0
#XLABEL      : Energy (eV)
#YLABEL      : Counts
#XPOSITION   : -2.61157
#YPOSITION   : 1.81884
#ZPOSITION   : 30.9284
#EDSDET      : SD
##SPECIMEN   : SPI MM1 Fluorapatite[2][all]
##D2STDCMP   : Fluorapatite,(O:35.868),(F:3.5492),(P:23.146),(Ca:37.4368)
##DET_HASH   : 12273538-fd48-a23f-0a19-f1e6fa85caef
##CALIB_HASH : 6abaa72c-aa41-8738-0be9-f592914732f3
##WORKING    : 15.0 mm
##DET_NAME   : EDAX All
##DET_MODE   : MediumLE
#SPECTRUM    :
16,
236,
18076,
3068,
21015,
6323,
2752,
3529,
3741,
4303,
4760,
4863,
5565,
7504,
63428,
18962,
4100,
3657,
3323,
3070,
3021,
2991,
2999,
2939,
2764,
3536,
98999,
33136,
6492,
16212,
1821,
1737,
1699,
1746,
1749,
1692,
1608,
1586,
1650,
1459,
1501,
1591,
1406,
1346,
1234,
1267,
1287,
1089,
1040,
1012,
1064,
992,
983,
1088,
930,
888,
875,
809,
800,
790,
734,
758,
702,
674,
630,
636,
614,
557,
579,
608,
495,
484,
491,
473,
452,
448,
452,
424,
406,
401,
397,
375,
338,
376,
333,
299,
274,
257,
258,
283,
244,
228,
221,
212,
206,
205,
185,
178,
155,
166,
178,
143,
136,
126,
155,
125,
107,
93,
91,
85,
86,
85,
77,
67,
75,
65,
65,
52,
42,
51,
38,
35,
42,
34,
37,
28,
36,
25,
25,
23,
17,
8,
12,
15,
14,
8,
7,
8,
6,
2,
2,
4,
1,
1,
1,
0,
1,
0,
0,
0,
0,
1,
0,
0,
0,
0,
0,
0,
0,
0,
0,
0,
0,
0,
1,
0,
0,
0,
0,
0,
0,
0,
0,
0,
0,
0,
0,
0,
0,
0,
0,
0,
0,
0,
0,
0,
0,
0,
0,
0,
0,
0,
0,
0,
0,
0,
0,
0,
0,
0,
0,
0,
0,
0,
0,
0,
0,
0,
0,
0,
0,
0,
0,
0,
0,
0,
0,
0,
0,
0,
0,
0,
0,
0,
0,
0,
0,
0,
0,
0,
0,
0,
0,
0,
0,
0,
0,
0,
0,
0,
0,
0,
0,
0,
0,
0,
0,
0,
0,
0,
0,
0,
0,
0,
0,
0,
0,
0,
0,
0,
0,
0,
0,
0,
0,
0,
0,
0,
0,
0,
0,
0,
0,
0,
0,
0,
0,
0,
0,
0,
0,
0,
0,
0,
0,
0,
0,
0,
0,
0,
0,
0,
0,
0,
#ENDOFDATA   :