File: N132962/Quantification/MMM1/SPI MM1 Barite[2][4].msa
#FORMAT      : EMSA/MAS Spectral Data File
#VERSION     : 1.0
#TITLE       : SPI MM1 Barite[2][all]
#DATE        : 11-MAR-2025
#TIME        : 13:27
#OWNER       : Unknown
#NPOINTS     : 4096
#NCOLUMNS    : 1
#XUNITS      : eV
#YUNITS      : counts
#DATATYPE    : Y
#XPERCHAN    : 9.99778
#OFFSET      : 1.69135
#BEAMKV      : 20
#SIGNALTYPE  : EDS
#ELEVANGLE   : 35
#AZIMANGLE   : 0
#LIVETIME    : 239.894
#REALTIME    : 258.916
#PROBECUR    : 1.02853
#TAUWIND     : 0
#TDEADLYR    : 0
#TACTLYR     : 0.045
#TALWIND     : 0.025
#CHOFFSET    : 0.0
#XLABEL      : Energy (eV)
#YLABEL      : Counts
#XPOSITION   : -0.41482
#YPOSITION   : -5.05928
#ZPOSITION   : 30.9284
#EDSDET      : SD
##SPECIMEN   : SPI MM1 Barite[2][all]
##DET_HASH   : 12273538-fd48-a23f-0a19-f1e6fa85caef
##CALIB_HASH : 6abaa72c-aa41-8738-0be9-f592914732f3
##WORKING    : 15.0 mm
##DET_NAME   : EDAX All
##DET_MODE   : MediumLE
#SPECTRUM    :
30,
1034,
14098,
8120,
55252,
5962,
5339,
5900,
4236,
4367,
4729,
5353,
5687,
6288,
5508,
5771,
28080,
24244,
7141,
5180,
4956,
4782,
4965,
4679,
4624,
4521,
4414,
4430,
6479,
4661,
4282,
9420,
82881,
5073,
19261,
25670,
6117,
15832,
3242,
4984,
5155,
3933,
3406,
2643,
2382,
2360,
2503,
2205,
2280,
2157,
2041,
2061,
1999,
2022,
1894,
1818,
1778,
1791,
1801,
1668,
1668,
1687,
1580,
1542,
1530,
1449,
1455,
1401,
1362,
1344,
1193,
1183,
1182,
1141,
1187,
1013,
1083,
1012,
1000,
963,
961,
887,
827,
804,
873,
756,
750,
716,
676,
698,
650,
610,
564,
583,
530,
533,
491,
495,
453,
469,
429,
401,
368,
353,
379,
324,
299,
309,
260,
275,
250,
207,
245,
191,
225,
189,
188,
166,
174,
172,
140,
118,
139,
131,
101,
108,
88,
84,
72,
77,
62,
61,
55,
57,
34,
27,
44,
24,
21,
10,
14,
10,
4,
2,
0,
1,
0,
1,
1,
1,
1,
1,
0,
2,
0,
1,
0,
2,
0,
2,
0,
1,
1,
0,
1,
2,
0,
2,
0,
0,
0,
0,
1,
1,
0,
0,
0,
0,
0,
0,
0,
0,
0,
1,
0,
2,
0,
0,
0,
0,
0,
0,
0,
0,
0,
0,
0,
0,
0,
0,
0,
0,
0,
0,
0,
0,
0,
0,
0,
0,
0,
0,
0,
0,
0,
0,
0,
0,
0,
0,
0,
0,
0,
0,
0,
0,
0,
0,
0,
0,
0,
0,
0,
0,
0,
0,
0,
0,
0,
0,
0,
0,
0,
0,
0,
0,
0,
0,
0,
0,
0,
0,
0,
0,
0,
0,
0,
0,
0,
0,
0,
0,
0,
0,
0,
0,
0,
0,
0,
0,
0,
0,
0,
0,
0,
0,
0,
0,
0,
0,
0,
0,
0,
0,
0,
0,
0,
0,
0,
0,
0,
0,
0,
0,
#ENDOFDATA   :