File: N132962/Quantification/MMM1/SPI MM1 Hematite[5][4].msa
#FORMAT      : EMSA/MAS Spectral Data File
#VERSION     : 1.0
#TITLE       : SPI MM1dup Hematite[5][all]
#DATE        : 12-MAR-2025
#TIME        : 16:52
#OWNER       : Unknown
#NPOINTS     : 4096
#NCOLUMNS    : 1
#XUNITS      : eV
#YUNITS      : counts
#DATATYPE    : Y
#XPERCHAN    : 9.99778
#OFFSET      : 1.69135
#BEAMKV      : 20
#SIGNALTYPE  : EDS
#ELEVANGLE   : 35
#AZIMANGLE   : 0
#LIVETIME    : 239.805
#REALTIME    : 256.676
#PROBECUR    : 1.026781
#TAUWIND     : 0
#TDEADLYR    : 0
#TACTLYR     : 0.045
#TALWIND     : 0.025
#CHOFFSET    : 0.0
#XLABEL      : Energy (eV)
#YLABEL      : Counts
#XPOSITION   : 3.58523
#YPOSITION   : 4.18736
#ZPOSITION   : 31.03608
#EDSDET      : SD
##SPECIMEN   : SPI MM1dup Hematite[5][all]
##D2STDCMP   : Hematite,(O:30.0574),(Fe:69.9426),5.0
##DET_HASH   : 12273538-fd48-a23f-0a19-f1e6fa85caef
##CALIB_HASH : 6abaa72c-aa41-8738-0be9-f592914732f3
##WORKING    : 15.0 mm
##DET_NAME   : EDAX All
##DET_MODE   : MediumLE
#SPECTRUM    :
24,
252,
11141,
9926,
71313,
54844,
2344,
2280,
2768,
3297,
3692,
4191,
4572,
4733,
4191,
4308,
4262,
4300,
4212,
4204,
3995,
3984,
3923,
3705,
3476,
3324,
3437,
3261,
3178,
3012,
3011,
2888,
2739,
3152,
2599,
2527,
2478,
2373,
2420,
2288,
2204,
2098,
2033,
2032,
2366,
34960,
106069,
2828,
1738,
2255,
13854,
7660,
1243,
1256,
1254,
1151,
1095,
1071,
1134,
1104,
1002,
987,
906,
946,
862,
891,
854,
856,
774,
787,
770,
728,
726,
641,
677,
640,
695,
575,
562,
589,
535,
570,
471,
501,
465,
488,
446,
467,
422,
381,
354,
443,
362,
326,
300,
325,
353,
284,
237,
259,
239,
237,
212,
198,
188,
191,
184,
141,
149,
150,
147,
119,
130,
129,
113,
96,
91,
84,
104,
63,
77,
89,
49,
50,
59,
53,
56,
45,
33,
43,
32,
34,
24,
28,
20,
18,
16,
11,
11,
10,
5,
1,
4,
1,
1,
2,
0,
0,
1,
3,
2,
1,
2,
1,
0,
1,
1,
0,
0,
0,
0,
0,
1,
0,
1,
2,
0,
0,
0,
0,
1,
0,
0,
0,
0,
0,
0,
0,
0,
0,
0,
0,
0,
0,
0,
0,
0,
0,
0,
0,
0,
0,
0,
0,
0,
0,
0,
0,
0,
0,
0,
0,
0,
0,
0,
0,
0,
0,
0,
0,
0,
0,
0,
0,
0,
0,
0,
0,
0,
0,
0,
0,
0,
0,
0,
0,
0,
0,
0,
0,
0,
0,
0,
0,
0,
0,
0,
0,
0,
0,
0,
0,
0,
0,
0,
0,
0,
0,
0,
0,
0,
0,
0,
0,
0,
0,
0,
0,
0,
0,
0,
0,
0,
0,
0,
0,
0,
0,
0,
0,
0,
0,
0,
0,
0,
0,
0,
0,
0,
0,
0,
0,
0,
0,
0,
0,
0,
0,
0,
0,
0,
0,
0,
0,
#ENDOFDATA   :