File: N132962/Quantification/MMM1/SPI MM1 Crocoite[2][4].msa
#FORMAT      : EMSA/MAS Spectral Data File
#VERSION     : 1.0
#TITLE       : SPI MM1dup Crocoite[2][all]
#DATE        : 12-MAR-2025
#TIME        : 13:52
#OWNER       : Unknown
#NPOINTS     : 4096
#NCOLUMNS    : 1
#XUNITS      : eV
#YUNITS      : counts
#DATATYPE    : Y
#XPERCHAN    : 9.99778
#OFFSET      : 1.69135
#BEAMKV      : 20
#SIGNALTYPE  : EDS
#ELEVANGLE   : 35
#AZIMANGLE   : 0
#LIVETIME    : 239.851
#REALTIME    : 261.99
#PROBECUR    : 1.02627
#TAUWIND     : 0
#TDEADLYR    : 0
#TACTLYR     : 0.045
#TALWIND     : 0.025
#CHOFFSET    : 0.0
#XLABEL      : Energy (eV)
#YLABEL      : Counts
#XPOSITION   : -1.18985
#YPOSITION   : -0.60256
#ZPOSITION   : 31.03608
#EDSDET      : SD
##SPECIMEN   : SPI MM1dup Crocoite[2][all]
##DET_HASH   : 12273538-fd48-a23f-0a19-f1e6fa85caef
##CALIB_HASH : 6abaa72c-aa41-8738-0be9-f592914732f3
##WORKING    : 15.0 mm
##DET_NAME   : EDAX All
##DET_MODE   : MediumLE
#SPECTRUM    :
22,
741,
17736,
6544,
29895,
6365,
5395,
5889,
6415,
7206,
7846,
8319,
8983,
18220,
8773,
8891,
17417,
138417,
23284,
11220,
5076,
5371,
6736,
5053,
4662,
4936,
4814,
4702,
4413,
4410,
4492,
4441,
4525,
4400,
4646,
4345,
4205,
4277,
14395,
32477,
4151,
3934,
6960,
5806,
3442,
3476,
3661,
3182,
3167,
3213,
3026,
2909,
2787,
3020,
2844,
2800,
2723,
2534,
2583,
2458,
2479,
2373,
2159,
2324,
2148,
2399,
2540,
2052,
1904,
1978,
1861,
1803,
1768,
1839,
2592,
9833,
5613,
1649,
1470,
1485,
1415,
1451,
1362,
1252,
1219,
1134,
1193,
1302,
1164,
1693,
4637,
1914,
1100,
1092,
842,
734,
763,
697,
710,
645,
638,
574,
611,
543,
516,
758,
644,
491,
506,
435,
419,
372,
348,
354,
293,
311,
296,
258,
255,
261,
241,
181,
191,
197,
157,
169,
163,
139,
113,
114,
113,
93,
91,
71,
66,
54,
62,
39,
39,
35,
22,
14,
5,
3,
6,
4,
8,
1,
2,
1,
6,
1,
5,
1,
3,
0,
1,
4,
1,
0,
2,
0,
2,
1,
0,
1,
0,
2,
3,
2,
1,
0,
0,
0,
1,
0,
0,
1,
1,
1,
0,
1,
0,
0,
2,
1,
2,
0,
1,
0,
1,
0,
1,
1,
1,
0,
1,
0,
0,
0,
0,
0,
1,
0,
0,
0,
0,
0,
0,
1,
1,
0,
0,
0,
0,
1,
0,
0,
0,
0,
0,
0,
0,
0,
0,
0,
0,
0,
0,
0,
0,
0,
0,
0,
0,
0,
0,
0,
0,
0,
0,
0,
0,
0,
0,
0,
0,
1,
0,
0,
0,
0,
0,
0,
0,
0,
0,
0,
0,
0,
0,
0,
0,
0,
0,
0,
0,
0,
0,
0,
0,
0,
0,
0,
0,
0,
0,
0,
0,
0,
0,
0,
0,
0,
0,
0,
0,
0,
0,
0,
0,
0,
0,
0,
#ENDOFDATA   :