File: N132962/Quantification/MMM1/SPI MM1 Jadeite[1][4].msa
#FORMAT      : EMSA/MAS Spectral Data File
#VERSION     : 1.0
#TITLE       : SPI MM1dup Jadeite[1][all]
#DATE        : 12-MAR-2025
#TIME        : 16:30
#OWNER       : Unknown
#NPOINTS     : 4096
#NCOLUMNS    : 1
#XUNITS      : eV
#YUNITS      : counts
#DATATYPE    : Y
#XPERCHAN    : 9.99778
#OFFSET      : 1.69135
#BEAMKV      : 20
#SIGNALTYPE  : EDS
#ELEVANGLE   : 35
#AZIMANGLE   : 0
#LIVETIME    : 239.778
#REALTIME    : 255.53
#PROBECUR    : 1.02709
#TAUWIND     : 0
#TDEADLYR    : 0
#TACTLYR     : 0.045
#TALWIND     : 0.025
#CHOFFSET    : 0.0
#XLABEL      : Energy (eV)
#YLABEL      : Counts
#XPOSITION   : 0.97132
#YPOSITION   : 4.47306
#ZPOSITION   : 31.03608
#EDSDET      : SD
##SPECIMEN   : SPI MM1dup Jadeite[1][all]
##D2STDCMP   : Jadeite,(O:47.4904),(Na:11.3733),(Al:13.348),(Si:27.7883),5.0
##DET_HASH   : 12273538-fd48-a23f-0a19-f1e6fa85caef
##CALIB_HASH : 6abaa72c-aa41-8738-0be9-f592914732f3
##WORKING    : 15.0 mm
##DET_NAME   : EDAX All
##DET_MODE   : MediumLE
#SPECTRUM    :
30,
187,
7760,
6288,
65517,
2100,
2832,
17470,
6212,
4904,
10199,
38891,
60288,
28417,
2233,
2082,
2712,
2221,
2115,
2047,
2228,
2105,
1956,
2273,
1839,
2051,
2244,
1816,
1689,
1587,
1495,
1468,
1521,
1333,
1337,
1276,
1191,
1229,
1159,
1129,
1067,
1042,
1010,
944,
928,
975,
1024,
847,
791,
774,
743,
742,
702,
710,
650,
656,
639,
615,
602,
593,
549,
516,
543,
472,
488,
441,
455,
398,
393,
407,
356,
323,
359,
345,
356,
318,
280,
267,
280,
234,
263,
241,
252,
238,
216,
214,
191,
200,
182,
177,
154,
151,
163,
141,
137,
144,
121,
103,
90,
117,
116,
108,
87,
88,
79,
65,
69,
73,
57,
59,
71,
53,
49,
42,
49,
51,
31,
35,
38,
30,
32,
22,
31,
24,
31,
13,
20,
18,
17,
14,
7,
10,
2,
9,
9,
6,
4,
6,
2,
1,
2,
2,
1,
0,
0,
0,
0,
0,
0,
0,
0,
0,
0,
0,
0,
0,
0,
0,
0,
0,
0,
0,
0,
0,
0,
0,
0,
0,
0,
0,
0,
0,
0,
0,
0,
0,
0,
0,
0,
0,
0,
0,
0,
0,
0,
0,
0,
0,
0,
0,
0,
0,
0,
0,
0,
0,
0,
0,
0,
0,
0,
0,
0,
0,
0,
0,
0,
0,
0,
0,
0,
0,
0,
0,
0,
0,
0,
0,
0,
0,
0,
0,
0,
0,
0,
0,
0,
0,
0,
0,
0,
0,
0,
0,
0,
0,
0,
0,
0,
0,
0,
0,
0,
0,
0,
0,
0,
0,
0,
0,
0,
0,
0,
0,
0,
0,
0,
0,
0,
0,
0,
0,
0,
0,
0,
0,
0,
0,
0,
0,
0,
0,
0,
0,
0,
0,
0,
0,
0,
0,
0,
0,
0,
0,
0,
0,
0,
0,
0,
0,
0,
0,
0,
0,
#ENDOFDATA   :