File: N132962/Quantification/MMM1/SPI MM1 Bustamite[6][4].msa
#FORMAT      : EMSA/MAS Spectral Data File
#VERSION     : 1.0
#TITLE       : SPI MM1 Bustamite[6][all]
#DATE        : 11-MAR-2025
#TIME        : 14:09
#OWNER       : Unknown
#NPOINTS     : 4096
#NCOLUMNS    : 1
#XUNITS      : eV
#YUNITS      : counts
#DATATYPE    : Y
#XPERCHAN    : 9.99778
#OFFSET      : 1.69135
#BEAMKV      : 20
#SIGNALTYPE  : EDS
#ELEVANGLE   : 35
#AZIMANGLE   : 0
#LIVETIME    : 239.983
#REALTIME    : 255.851
#PROBECUR    : 1.02902
#TAUWIND     : 0
#TDEADLYR    : 0
#TACTLYR     : 0.045
#TALWIND     : 0.025
#CHOFFSET    : 0.0
#XLABEL      : Energy (eV)
#YLABEL      : Counts
#XPOSITION   : 2.69669
#YPOSITION   : -2.76913
#ZPOSITION   : 30.9284
#EDSDET      : SD
##SPECIMEN   : SPI MM1 Bustamite[6][all]
##D2STDCMP   : Bustamite,(O:38.8357),(Si:22.7243),(Ca:16.2141),(Mn:22.2259),6.0
##DET_HASH   : 12273538-fd48-a23f-0a19-f1e6fa85caef
##CALIB_HASH : 6abaa72c-aa41-8738-0be9-f592914732f3
##WORKING    : 15.0 mm
##DET_NAME   : EDAX All
##DET_MODE   : MediumLE
#SPECTRUM    :
24,
197,
11149,
4897,
42115,
7044,
2413,
3132,
3240,
4683,
4367,
5222,
56055,
27056,
3944,
3141,
3671,
3252,
3086,
3077,
3155,
2938,
2923,
2792,
2773,
3189,
36913,
13361,
3951,
7522,
2258,
2002,
2057,
1918,
1793,
1834,
1757,
1709,
1708,
1659,
1565,
2567,
40004,
4623,
1371,
4304,
14022,
2660,
1144,
1126,
2055,
1497,
989,
1068,
998,
881,
851,
829,
798,
863,
754,
833,
853,
741,
697,
682,
630,
596,
601,
626,
545,
541,
550,
488,
503,
523,
450,
434,
423,
464,
375,
380,
363,
346,
328,
326,
341,
282,
331,
276,
255,
233,
224,
224,
202,
228,
222,
176,
180,
176,
158,
127,
150,
147,
135,
113,
128,
114,
108,
98,
91,
80,
91,
74,
73,
63,
72,
51,
67,
51,
55,
54,
57,
35,
36,
36,
35,
34,
27,
25,
26,
23,
24,
18,
10,
12,
10,
5,
5,
4,
5,
3,
2,
0,
0,
0,
2,
0,
0,
0,
0,
0,
0,
1,
0,
0,
1,
0,
0,
0,
0,
0,
0,
0,
0,
1,
0,
0,
0,
0,
0,
0,
1,
0,
0,
0,
0,
0,
0,
0,
0,
0,
0,
0,
0,
0,
0,
0,
0,
0,
0,
0,
0,
0,
0,
0,
0,
0,
0,
0,
0,
0,
0,
0,
0,
0,
0,
0,
0,
0,
0,
0,
0,
0,
0,
0,
0,
0,
0,
0,
0,
0,
0,
0,
0,
0,
0,
0,
0,
0,
0,
0,
0,
0,
0,
0,
0,
0,
0,
0,
0,
0,
0,
0,
0,
0,
0,
0,
0,
0,
0,
0,
0,
0,
0,
0,
0,
0,
0,
0,
0,
0,
0,
0,
0,
0,
0,
0,
0,
0,
0,
0,
0,
0,
0,
0,
0,
0,
0,
0,
0,
0,
0,
0,
0,
0,
0,
0,
0,
0,
0,
0,
0,
0,
#ENDOFDATA   :