File: N132962/Quantification/MMM1/SPI MM1 Chromite[7][4].msa
#FORMAT      : EMSA/MAS Spectral Data File
#VERSION     : 1.0
#TITLE       : SPI MM1dup Chromite[7][all]
#DATE        : 12-MAR-2025
#TIME        : 14:17
#OWNER       : Unknown
#NPOINTS     : 4096
#NCOLUMNS    : 1
#XUNITS      : eV
#YUNITS      : counts
#DATATYPE    : Y
#XPERCHAN    : 9.99778
#OFFSET      : 1.69135
#BEAMKV      : 20
#SIGNALTYPE  : EDS
#ELEVANGLE   : 35
#AZIMANGLE   : 0
#LIVETIME    : 239.926
#REALTIME    : 256.306
#PROBECUR    : 1.02867
#TAUWIND     : 0
#TDEADLYR    : 0
#TACTLYR     : 0.045
#TALWIND     : 0.025
#CHOFFSET    : 0.0
#XLABEL      : Energy (eV)
#YLABEL      : Counts
#XPOSITION   : 4.2085
#YPOSITION   : -0.2618
#ZPOSITION   : 31.03608
#EDSDET      : SD
##SPECIMEN   : SPI MM1dup Chromite[7][all]
##DET_HASH   : 12273538-fd48-a23f-0a19-f1e6fa85caef
##CALIB_HASH : 6abaa72c-aa41-8738-0be9-f592914732f3
##WORKING    : 15.0 mm
##DET_NAME   : EDAX All
##DET_MODE   : MediumLE
#SPECTRUM    :
21,
231,
9752,
10364,
82316,
7425,
2514,
2864,
3716,
57956,
7900,
27223,
3642,
3698,
3424,
3398,
3356,
3336,
3294,
3324,
3198,
3217,
3021,
2874,
2904,
2848,
3096,
2637,
2440,
2381,
2426,
2196,
2350,
2211,
2026,
2153,
1938,
2069,
21888,
57827,
2001,
1809,
7543,
5974,
1317,
5529,
14922,
1362,
1222,
1300,
2663,
1906,
1035,
1147,
1072,
951,
917,
889,
858,
836,
724,
767,
790,
754,
706,
704,
675,
635,
712,
588,
590,
570,
521,
547,
468,
511,
492,
499,
451,
396,
374,
418,
357,
378,
374,
346,
349,
344,
291,
283,
250,
277,
234,
246,
209,
215,
203,
184,
170,
179,
172,
153,
136,
128,
154,
133,
119,
124,
111,
97,
95,
93,
87,
101,
65,
75,
58,
56,
60,
59,
45,
42,
47,
41,
32,
38,
22,
29,
27,
27,
28,
24,
18,
13,
9,
12,
12,
6,
7,
6,
8,
3,
3,
0,
0,
1,
0,
0,
0,
0,
1,
1,
0,
0,
0,
0,
1,
1,
0,
0,
1,
0,
0,
1,
0,
0,
1,
0,
0,
0,
0,
0,
0,
0,
1,
0,
0,
0,
0,
0,
0,
0,
0,
0,
0,
0,
0,
0,
0,
0,
0,
0,
0,
0,
0,
0,
0,
0,
0,
0,
0,
0,
0,
0,
0,
0,
0,
0,
0,
0,
0,
0,
0,
0,
0,
0,
0,
0,
0,
0,
0,
0,
0,
0,
0,
0,
0,
0,
0,
0,
0,
0,
0,
0,
0,
0,
0,
0,
0,
0,
0,
0,
0,
0,
0,
0,
0,
0,
0,
0,
0,
0,
0,
0,
0,
0,
0,
0,
0,
0,
0,
0,
0,
0,
0,
0,
0,
0,
0,
0,
0,
0,
0,
0,
0,
0,
0,
0,
0,
0,
0,
0,
0,
0,
0,
0,
0,
0,
0,
0,
0,
0,
0,
0,
#ENDOFDATA   :