File: N132962/Quantification/MMM1/SPI MM1 Chlorite[2][4].msa
#FORMAT      : EMSA/MAS Spectral Data File
#VERSION     : 1.0
#TITLE       : SPI MM1dup Chlorite[2][all]
#DATE        : 12-MAR-2025
#TIME        : 14:20
#OWNER       : Unknown
#NPOINTS     : 4096
#NCOLUMNS    : 1
#XUNITS      : eV
#YUNITS      : counts
#DATATYPE    : Y
#XPERCHAN    : 9.99778
#OFFSET      : 1.69135
#BEAMKV      : 20
#SIGNALTYPE  : EDS
#ELEVANGLE   : 35
#AZIMANGLE   : 0
#LIVETIME    : 239.79
#REALTIME    : 254.634
#PROBECUR    : 1.02867
#TAUWIND     : 0
#TDEADLYR    : 0
#TACTLYR     : 0.045
#TALWIND     : 0.025
#CHOFFSET    : 0.0
#XLABEL      : Energy (eV)
#YLABEL      : Counts
#XPOSITION   : 6.1863
#YPOSITION   : -0.3201
#ZPOSITION   : 31.03608
#EDSDET      : SD
##SPECIMEN   : SPI MM1dup Chlorite[2][all]
##DET_HASH   : 12273538-fd48-a23f-0a19-f1e6fa85caef
##CALIB_HASH : 6abaa72c-aa41-8738-0be9-f592914732f3
##WORKING    : 15.0 mm
##DET_NAME   : EDAX All
##DET_MODE   : MediumLE
#SPECTRUM    :
22,
198,
8799,
7379,
81033,
4250,
2704,
3062,
4696,
150669,
6149,
22360,
28407,
14434,
2213,
2192,
2463,
2156,
2266,
2149,
2138,
2224,
1967,
1969,
1828,
1785,
1704,
1639,
1575,
1500,
1514,
1399,
1400,
1345,
1262,
1303,
1185,
1159,
1965,
3141,
999,
1038,
1224,
1086,
908,
1943,
4359,
830,
713,
761,
1089,
941,
668,
832,
739,
611,
582,
553,
540,
551,
496,
519,
493,
437,
436,
442,
408,
394,
401,
361,
356,
357,
300,
338,
323,
262,
273,
271,
235,
264,
245,
230,
210,
233,
211,
211,
194,
170,
181,
171,
166,
155,
146,
147,
135,
115,
108,
126,
93,
103,
89,
84,
86,
78,
88,
63,
70,
67,
71,
54,
54,
52,
46,
33,
32,
40,
42,
50,
28,
27,
22,
28,
14,
19,
24,
29,
14,
13,
23,
12,
12,
15,
10,
5,
5,
6,
3,
4,
5,
0,
1,
2,
2,
0,
0,
0,
0,
0,
1,
0,
0,
0,
0,
0,
0,
0,
0,
0,
0,
0,
0,
0,
0,
0,
0,
0,
0,
0,
0,
0,
0,
0,
0,
0,
0,
0,
0,
0,
0,
0,
0,
0,
0,
0,
0,
0,
0,
0,
0,
0,
0,
0,
0,
0,
0,
0,
1,
0,
0,
0,
0,
0,
0,
0,
0,
0,
0,
0,
0,
0,
0,
0,
0,
0,
0,
0,
0,
0,
0,
0,
0,
0,
0,
0,
0,
0,
0,
0,
0,
0,
0,
0,
0,
0,
0,
0,
0,
0,
0,
0,
0,
0,
0,
0,
0,
0,
0,
0,
0,
0,
0,
0,
0,
0,
0,
0,
0,
0,
0,
0,
0,
0,
0,
0,
0,
0,
0,
0,
0,
0,
0,
0,
0,
0,
0,
0,
0,
0,
0,
0,
0,
0,
0,
0,
0,
0,
0,
0,
0,
0,
0,
0,
0,
0,
#ENDOFDATA   :