File: N132962/Quantification/MMM1/SPI MM1 Fluorapatite[4][4].msa
#FORMAT      : EMSA/MAS Spectral Data File
#VERSION     : 1.0
#TITLE       : SPI MM1 Fluorapatite[4][all]
#DATE        : 11-MAR-2025
#TIME        : 14:40
#OWNER       : Unknown
#NPOINTS     : 4096
#NCOLUMNS    : 1
#XUNITS      : eV
#YUNITS      : counts
#DATATYPE    : Y
#XPERCHAN    : 9.99778
#OFFSET      : 1.69135
#BEAMKV      : 20
#SIGNALTYPE  : EDS
#ELEVANGLE   : 35
#AZIMANGLE   : 0
#LIVETIME    : 239.87
#REALTIME    : 255.656
#PROBECUR    : 1.02809
#TAUWIND     : 0
#TDEADLYR    : 0
#TACTLYR     : 0.045
#TALWIND     : 0.025
#CHOFFSET    : 0.0
#XLABEL      : Energy (eV)
#YLABEL      : Counts
#XPOSITION   : -2.60014
#YPOSITION   : 1.91266
#ZPOSITION   : 30.9284
#EDSDET      : SD
##SPECIMEN   : SPI MM1 Fluorapatite[4][all]
##D2STDCMP   : Fluorapatite,(O:35.868),(F:3.5492),(P:23.146),(Ca:37.4368)
##DET_HASH   : 12273538-fd48-a23f-0a19-f1e6fa85caef
##CALIB_HASH : 6abaa72c-aa41-8738-0be9-f592914732f3
##WORKING    : 15.0 mm
##DET_NAME   : EDAX All
##DET_MODE   : MediumLE
#SPECTRUM    :
14,
229,
18201,
3039,
21064,
6402,
2784,
3427,
3727,
4342,
4643,
5061,
5504,
7418,
64247,
19125,
4218,
3559,
3327,
3178,
3230,
3021,
2868,
2885,
2686,
3534,
98434,
33234,
6449,
16520,
1918,
1733,
1650,
1706,
1676,
1656,
1608,
1646,
1689,
1498,
1487,
1647,
1266,
1314,
1191,
1204,
1266,
1073,
1068,
1006,
1020,
997,
972,
1080,
892,
830,
862,
780,
777,
763,
731,
704,
664,
630,
662,
617,
627,
575,
572,
550,
500,
499,
525,
510,
446,
461,
422,
439,
416,
396,
366,
385,
358,
329,
307,
280,
287,
282,
247,
263,
256,
253,
230,
241,
213,
207,
201,
165,
160,
150,
153,
140,
133,
128,
131,
115,
94,
108,
112,
99,
87,
81,
69,
74,
64,
53,
72,
52,
47,
49,
35,
43,
47,
37,
41,
28,
21,
23,
26,
24,
14,
17,
8,
6,
14,
8,
9,
7,
3,
5,
4,
4,
2,
1,
1,
0,
1,
1,
0,
0,
0,
0,
0,
0,
0,
0,
0,
1,
1,
0,
0,
0,
0,
0,
0,
1,
0,
0,
0,
0,
0,
0,
0,
0,
0,
0,
0,
0,
0,
0,
0,
0,
0,
0,
0,
0,
0,
0,
0,
0,
0,
0,
0,
0,
0,
0,
0,
0,
0,
0,
0,
0,
0,
0,
0,
0,
0,
0,
0,
0,
0,
0,
0,
0,
0,
0,
0,
0,
0,
0,
0,
0,
0,
0,
0,
0,
0,
0,
0,
0,
0,
0,
0,
0,
0,
0,
0,
0,
0,
0,
0,
0,
0,
0,
0,
0,
0,
0,
0,
0,
0,
0,
0,
0,
0,
0,
0,
0,
0,
0,
0,
0,
0,
0,
0,
0,
0,
0,
0,
0,
0,
0,
0,
0,
0,
0,
0,
0,
0,
0,
0,
0,
0,
0,
0,
0,
0,
0,
0,
0,
0,
0,
0,
0,
#ENDOFDATA   :