File: N132962/Quantification/MMM1/SPI MM1 Andradite[4][4].msa
#FORMAT      : EMSA/MAS Spectral Data File
#VERSION     : 1.0
#TITLE       : SPI MM1 Andradite[4][all]
#DATE        : 11-MAR-2025
#TIME        : 13:11
#OWNER       : Unknown
#NPOINTS     : 4096
#NCOLUMNS    : 1
#XUNITS      : eV
#YUNITS      : counts
#DATATYPE    : Y
#XPERCHAN    : 9.99778
#OFFSET      : 1.69135
#BEAMKV      : 20
#SIGNALTYPE  : EDS
#ELEVANGLE   : 35
#AZIMANGLE   : 0
#LIVETIME    : 239.7462
#REALTIME    : 255.084
#PROBECUR    : 1.02699
#TAUWIND     : 0
#TDEADLYR    : 0
#TACTLYR     : 0.045
#TALWIND     : 0.025
#CHOFFSET    : 0.0
#XLABEL      : Energy (eV)
#YLABEL      : Counts
#XPOSITION   : -2.20924
#YPOSITION   : -8.047
#ZPOSITION   : 30.9284
#EDSDET      : SD
##SPECIMEN   : SPI MM1 Andradite[4][all]
##D2STDCMP   : Andradite,(O:37.7805),(Si:16.5802),(Ca:23.6603),(Fe:21.979),3.86
##DET_HASH   : 12273538-fd48-a23f-0a19-f1e6fa85caef
##CALIB_HASH : 6abaa72c-aa41-8738-0be9-f592914732f3
##WORKING    : 15.0 mm
##DET_NAME   : EDAX All
##DET_MODE   : MediumLE
#SPECTRUM    :
20,
193,
14606,
4024,
31810,
13170,
2503,
2880,
3479,
4083,
5515,
11474,
40299,
19867,
4596,
3371,
3665,
3274,
3342,
3249,
3149,
3065,
3027,
2901,
2830,
3432,
65232,
22499,
5063,
11518,
2151,
1904,
1832,
1839,
1833,
1721,
1638,
1627,
1678,
1691,
1456,
1539,
1891,
1372,
1395,
8327,
23634,
1435,
1178,
1227,
3599,
2369,
964,
1047,
921,
908,
860,
846,
791,
791,
748,
777,
695,
709,
674,
649,
603,
610,
614,
573,
541,
558,
575,
490,
481,
480,
480,
477,
426,
429,
399,
384,
344,
336,
321,
303,
296,
301,
270,
280,
268,
235,
242,
241,
223,
202,
185,
194,
164,
169,
171,
137,
138,
141,
118,
143,
111,
121,
108,
94,
87,
87,
64,
79,
55,
69,
68,
54,
48,
50,
50,
42,
43,
32,
31,
33,
32,
32,
20,
21,
13,
22,
14,
20,
13,
4,
10,
5,
7,
8,
6,
1,
0,
2,
1,
0,
0,
0,
1,
0,
0,
0,
0,
0,
1,
0,
0,
0,
0,
1,
0,
0,
0,
0,
0,
0,
0,
0,
0,
0,
0,
0,
0,
0,
0,
1,
0,
0,
0,
1,
0,
0,
0,
0,
0,
0,
0,
0,
0,
0,
0,
0,
0,
0,
0,
0,
0,
0,
0,
0,
0,
0,
0,
0,
0,
0,
0,
0,
0,
0,
0,
0,
0,
0,
0,
0,
0,
0,
0,
0,
0,
0,
0,
0,
0,
0,
0,
0,
0,
0,
0,
0,
0,
0,
0,
0,
0,
0,
0,
0,
0,
0,
0,
0,
0,
0,
0,
0,
0,
0,
0,
0,
0,
0,
0,
0,
0,
0,
0,
0,
0,
0,
0,
0,
0,
0,
0,
0,
0,
0,
0,
0,
0,
0,
0,
0,
0,
0,
0,
0,
0,
0,
0,
0,
0,
0,
0,
0,
0,
0,
0,
0,
0,
0,
#ENDOFDATA   :