File: N132962/Quantification/MMM1/SPI MM1 Bustamite[5][4].msa
#FORMAT      : EMSA/MAS Spectral Data File
#VERSION     : 1.0
#TITLE       : SPI MM1 Bustamite[5][all]
#DATE        : 11-MAR-2025
#TIME        : 14:08
#OWNER       : Unknown
#NPOINTS     : 4096
#NCOLUMNS    : 1
#XUNITS      : eV
#YUNITS      : counts
#DATATYPE    : Y
#XPERCHAN    : 9.99778
#OFFSET      : 1.69135
#BEAMKV      : 20
#SIGNALTYPE  : EDS
#ELEVANGLE   : 35
#AZIMANGLE   : 0
#LIVETIME    : 240.08
#REALTIME    : 255.985
#PROBECUR    : 1.02902
#TAUWIND     : 0
#TDEADLYR    : 0
#TACTLYR     : 0.045
#TALWIND     : 0.025
#CHOFFSET    : 0.0
#XLABEL      : Energy (eV)
#YLABEL      : Counts
#XPOSITION   : 2.72013
#YPOSITION   : -2.77713
#ZPOSITION   : 30.9284
#EDSDET      : SD
##SPECIMEN   : SPI MM1 Bustamite[5][all]
##D2STDCMP   : Bustamite,(O:38.8357),(Si:22.7243),(Ca:16.2141),(Mn:22.2259),6.0
##DET_HASH   : 12273538-fd48-a23f-0a19-f1e6fa85caef
##CALIB_HASH : 6abaa72c-aa41-8738-0be9-f592914732f3
##WORKING    : 15.0 mm
##DET_NAME   : EDAX All
##DET_MODE   : MediumLE
#SPECTRUM    :
29,
170,
11322,
4990,
42650,
6997,
2385,
3122,
3393,
4802,
4444,
5314,
56368,
27285,
3853,
3221,
3572,
3155,
3218,
3246,
2964,
2987,
2905,
2771,
2839,
3271,
36806,
13558,
3924,
7470,
2232,
1939,
1979,
1976,
1906,
1771,
1782,
1735,
1660,
1668,
1652,
2573,
39638,
4477,
1422,
4129,
13971,
2771,
1133,
1154,
2080,
1579,
1002,
1009,
975,
947,
844,
916,
854,
805,
794,
809,
818,
700,
709,
667,
646,
638,
624,
634,
634,
570,
539,
473,
498,
460,
435,
435,
421,
410,
376,
386,
386,
390,
353,
336,
355,
300,
307,
277,
233,
245,
220,
228,
207,
197,
204,
232,
200,
172,
174,
148,
152,
145,
129,
108,
110,
120,
107,
101,
106,
94,
65,
80,
82,
63,
52,
54,
51,
47,
40,
43,
40,
33,
29,
38,
39,
24,
26,
17,
16,
12,
16,
13,
7,
11,
14,
9,
5,
3,
2,
3,
3,
1,
0,
0,
0,
0,
0,
0,
0,
0,
0,
0,
0,
0,
0,
0,
0,
0,
0,
0,
0,
0,
0,
0,
0,
2,
0,
0,
0,
1,
0,
0,
0,
0,
0,
0,
1,
0,
0,
0,
0,
0,
0,
0,
0,
0,
0,
0,
0,
0,
0,
0,
0,
0,
0,
0,
0,
0,
0,
0,
0,
0,
0,
0,
0,
0,
0,
0,
0,
0,
0,
0,
0,
0,
0,
0,
0,
0,
0,
0,
0,
0,
0,
0,
0,
0,
0,
0,
0,
0,
0,
0,
0,
0,
0,
0,
0,
0,
0,
0,
0,
0,
0,
0,
0,
0,
0,
0,
0,
0,
0,
0,
0,
0,
0,
0,
0,
0,
0,
0,
0,
0,
0,
0,
0,
0,
0,
0,
0,
0,
0,
0,
0,
0,
0,
0,
0,
0,
0,
0,
0,
0,
0,
0,
0,
0,
0,
0,
0,
0,
0,
0,
#ENDOFDATA   :