File: N132962/Quantification/MMM1/SPI MM1 Benitoite[2][4].msa
#FORMAT      : EMSA/MAS Spectral Data File
#VERSION     : 1.0
#TITLE       : SPI MM1 Benitoite[2][all]
#DATE        : 11-MAR-2025
#TIME        : 13:18
#OWNER       : Unknown
#NPOINTS     : 4096
#NCOLUMNS    : 1
#XUNITS      : eV
#YUNITS      : counts
#DATATYPE    : Y
#XPERCHAN    : 9.99778
#OFFSET      : 1.69135
#BEAMKV      : 20
#SIGNALTYPE  : EDS
#ELEVANGLE   : 35
#AZIMANGLE   : 0
#LIVETIME    : 239.857
#REALTIME    : 256.75
#PROBECUR    : 1.02699
#TAUWIND     : 0
#TDEADLYR    : 0
#TACTLYR     : 0.045
#TALWIND     : 0.025
#CHOFFSET    : 0.0
#XLABEL      : Energy (eV)
#YLABEL      : Counts
#XPOSITION   : -3.21888
#YPOSITION   : -4.9419
#ZPOSITION   : 30.9284
#EDSDET      : SD
##SPECIMEN   : SPI MM1 Benitoite[2][all]
##D2STDCMP   : Benitoite,(O:34.828),(Si:20.3791),(Ti:11.5776),(Ba:33.2153)
##DET_HASH   : 12273538-fd48-a23f-0a19-f1e6fa85caef
##CALIB_HASH : 6abaa72c-aa41-8738-0be9-f592914732f3
##WORKING    : 15.0 mm
##DET_NAME   : EDAX All
##DET_MODE   : MediumLE
#SPECTRUM    :
25,
247,
11365,
12189,
44582,
3593,
3977,
4795,
3945,
4204,
4719,
5304,
46428,
23346,
3927,
3865,
4255,
4006,
4052,
4343,
4248,
3833,
3989,
3811,
3745,
3739,
3468,
3417,
4507,
3513,
3066,
6268,
80815,
7153,
11226,
19295,
4684,
8991,
2395,
3417,
3268,
2678,
2392,
2022,
1774,
1947,
1916,
1693,
1606,
1517,
1657,
1551,
1482,
1556,
1439,
1349,
1355,
1284,
1245,
1197,
1162,
1159,
1133,
1102,
1088,
1050,
1083,
991,
912,
965,
850,
888,
861,
866,
790,
760,
794,
760,
639,
649,
628,
584,
600,
557,
546,
570,
519,
502,
470,
474,
423,
414,
381,
387,
397,
384,
366,
322,
300,
309,
279,
262,
259,
251,
214,
220,
210,
183,
180,
175,
159,
167,
159,
145,
129,
123,
121,
117,
91,
86,
92,
78,
83,
70,
74,
75,
56,
39,
47,
43,
34,
35,
29,
29,
28,
22,
15,
20,
13,
7,
10,
6,
3,
1,
1,
1,
0,
0,
1,
0,
0,
0,
0,
0,
0,
1,
0,
0,
0,
0,
1,
0,
1,
0,
0,
0,
0,
0,
0,
0,
0,
0,
0,
0,
1,
0,
0,
0,
0,
0,
0,
0,
0,
0,
0,
0,
0,
0,
0,
0,
0,
0,
0,
0,
1,
0,
0,
0,
0,
0,
0,
0,
0,
0,
0,
0,
0,
0,
0,
0,
0,
0,
0,
0,
0,
0,
0,
0,
0,
0,
0,
0,
0,
0,
0,
0,
0,
0,
0,
0,
0,
0,
0,
0,
0,
0,
0,
0,
0,
0,
0,
0,
0,
0,
0,
0,
0,
0,
0,
0,
0,
0,
0,
0,
0,
0,
0,
0,
0,
0,
0,
0,
0,
0,
0,
0,
0,
0,
0,
0,
0,
0,
0,
0,
0,
0,
0,
0,
0,
0,
0,
0,
0,
0,
0,
0,
0,
0,
0,
0,
0,
0,
0,
0,
#ENDOFDATA   :