File: N132962/Quantification/MMM1/SPI MM1 Calcite[6][4].msa
#FORMAT      : EMSA/MAS Spectral Data File
#VERSION     : 1.0
#TITLE       : SPI MM1 Calcite[6][all]
#DATE        : 11-MAR-2025
#TIME        : 14:18
#OWNER       : Unknown
#NPOINTS     : 4096
#NCOLUMNS    : 1
#XUNITS      : eV
#YUNITS      : counts
#DATATYPE    : Y
#XPERCHAN    : 9.99778
#OFFSET      : 1.69135
#BEAMKV      : 20
#SIGNALTYPE  : EDS
#ELEVANGLE   : 35
#AZIMANGLE   : 0
#LIVETIME    : 239.904
#REALTIME    : 252.199
#PROBECUR    : 1.02902
#TAUWIND     : 0
#TDEADLYR    : 0
#TACTLYR     : 0.045
#TALWIND     : 0.025
#CHOFFSET    : 0.0
#XLABEL      : Energy (eV)
#YLABEL      : Counts
#XPOSITION   : 0.12263
#YPOSITION   : -2.95603
#ZPOSITION   : 30.9284
#EDSDET      : SD
##SPECIMEN   : SPI MM1 Calcite[6][all]
##D2STDCMP   : Calcite,(C:12.0003),(O:47.9565),(Ca:40.0432),5.0
##DET_HASH   : 12273538-fd48-a23f-0a19-f1e6fa85caef
##CALIB_HASH : 6abaa72c-aa41-8738-0be9-f592914732f3
##WORKING    : 15.0 mm
##DET_NAME   : EDAX All
##DET_MODE   : MediumLE
#SPECTRUM    :
37,
287,
38988,
2835,
23651,
1591,
2070,
2407,
3068,
3554,
3926,
4043,
4201,
4461,
5668,
3709,
3670,
3288,
3178,
3068,
2844,
2801,
2811,
2737,
2450,
3480,
104233,
34866,
6385,
16805,
1658,
1449,
1477,
1452,
1343,
1352,
1343,
1265,
1260,
1197,
1227,
1160,
1272,
1047,
978,
1019,
1120,
940,
914,
859,
828,
900,
890,
983,
741,
812,
715,
660,
653,
666,
595,
627,
595,
580,
567,
521,
528,
516,
484,
459,
419,
412,
429,
411,
413,
335,
363,
360,
343,
328,
318,
290,
291,
265,
261,
252,
241,
201,
211,
240,
192,
184,
188,
195,
146,
167,
136,
141,
125,
122,
111,
130,
118,
123,
92,
82,
73,
78,
76,
79,
64,
56,
75,
54,
40,
48,
45,
44,
39,
29,
35,
27,
28,
38,
27,
20,
21,
22,
24,
15,
22,
13,
8,
13,
10,
6,
6,
7,
3,
6,
5,
2,
1,
0,
1,
1,
0,
0,
0,
0,
0,
0,
0,
0,
1,
1,
0,
0,
0,
0,
0,
0,
0,
0,
0,
0,
0,
0,
0,
0,
1,
0,
0,
0,
0,
0,
0,
0,
0,
0,
0,
0,
0,
0,
0,
0,
0,
0,
0,
0,
0,
0,
0,
0,
0,
0,
0,
0,
0,
0,
0,
0,
0,
0,
0,
0,
0,
0,
0,
0,
0,
0,
0,
0,
0,
0,
0,
0,
0,
0,
0,
0,
0,
0,
0,
0,
0,
0,
0,
0,
0,
0,
0,
0,
0,
0,
0,
0,
0,
0,
0,
0,
0,
0,
0,
0,
0,
0,
0,
0,
0,
0,
0,
0,
0,
0,
0,
0,
0,
0,
0,
0,
0,
0,
0,
0,
0,
0,
0,
0,
0,
0,
0,
0,
0,
0,
0,
0,
0,
0,
0,
0,
0,
0,
0,
0,
0,
0,
0,
0,
0,
0,
0,
0,
#ENDOFDATA   :