File: N132962/Quantification/MMM1/SPI MM1 Almandine[4][4].msa
#FORMAT      : EMSA/MAS Spectral Data File
#VERSION     : 1.0
#TITLE       : SPI MM1 Almandine[4][all]
#DATE        : 11-MAR-2025
#TIME        : 13:02
#OWNER       : Unknown
#NPOINTS     : 4096
#NCOLUMNS    : 1
#XUNITS      : eV
#YUNITS      : counts
#DATATYPE    : Y
#XPERCHAN    : 9.99778
#OFFSET      : 1.69135
#BEAMKV      : 20
#SIGNALTYPE  : EDS
#ELEVANGLE   : 35
#AZIMANGLE   : 0
#LIVETIME    : 239.834
#REALTIME    : 255.276
#PROBECUR    : 1.02699
#TAUWIND     : 0
#TDEADLYR    : 0
#TACTLYR     : 0.045
#TALWIND     : 0.025
#CHOFFSET    : 0.0
#XLABEL      : Energy (eV)
#YLABEL      : Counts
#XPOSITION   : 0.45275
#YPOSITION   : -7.86648
#ZPOSITION   : 30.9284
#EDSDET      : SD
##SPECIMEN   : SPI MM1 Almandine[4][all]
##D2STDCMP   : Almandine,(O:38.5719),(Al:10.8416),(Si:16.9275),(Fe:33.6591),4.05
##DET_HASH   : 12273538-fd48-a23f-0a19-f1e6fa85caef
##CALIB_HASH : 6abaa72c-aa41-8738-0be9-f592914732f3
##WORKING    : 15.0 mm
##DET_NAME   : EDAX All
##DET_MODE   : MediumLE
#SPECTRUM    :
20,
183,
8884,
6312,
59335,
15194,
2487,
2934,
3645,
41967,
9051,
31314,
39232,
19790,
2915,
2822,
3143,
2740,
2759,
2713,
2707,
2776,
2539,
2535,
2413,
2514,
9421,
4338,
2376,
3094,
2090,
1849,
1903,
1858,
1724,
1662,
1593,
1539,
1543,
1457,
1354,
1375,
2232,
1308,
1287,
9463,
27664,
1464,
1129,
1244,
3907,
2503,
951,
934,
867,
847,
802,
715,
776,
752,
677,
689,
643,
666,
610,
569,
595,
546,
552,
556,
529,
501,
498,
446,
397,
415,
441,
385,
389,
362,
353,
321,
313,
340,
281,
310,
260,
269,
251,
234,
206,
211,
235,
211,
149,
184,
154,
154,
128,
155,
143,
141,
119,
118,
107,
101,
114,
100,
95,
77,
77,
76,
81,
61,
65,
51,
56,
47,
50,
46,
38,
35,
32,
27,
29,
28,
25,
25,
33,
19,
13,
18,
9,
12,
16,
13,
7,
9,
6,
2,
2,
1,
0,
1,
0,
0,
0,
2,
0,
0,
0,
0,
0,
0,
0,
1,
0,
0,
0,
0,
0,
0,
1,
0,
1,
0,
0,
0,
0,
1,
0,
0,
0,
0,
0,
0,
0,
0,
0,
0,
0,
0,
0,
0,
0,
0,
0,
0,
0,
0,
0,
0,
0,
0,
0,
0,
0,
0,
0,
0,
0,
0,
0,
0,
0,
0,
0,
0,
0,
0,
0,
0,
0,
0,
0,
0,
0,
0,
0,
0,
0,
0,
0,
0,
0,
0,
0,
0,
0,
0,
0,
0,
0,
0,
0,
0,
0,
0,
0,
0,
0,
0,
0,
0,
0,
0,
0,
0,
0,
0,
0,
0,
0,
0,
0,
0,
0,
0,
0,
0,
0,
0,
0,
0,
0,
0,
0,
0,
0,
0,
0,
0,
0,
0,
0,
0,
0,
0,
0,
0,
0,
0,
0,
0,
0,
0,
0,
0,
0,
0,
0,
0,
0,
0,
#ENDOFDATA   :