File: N132962/Quantification/MMM1/SPI MM1 Chalcopyrite[7][4].msa
#FORMAT      : EMSA/MAS Spectral Data File
#VERSION     : 1.0
#TITLE       : SPI MM1 Chalcopyrite[7][all]
#DATE        : 11-MAR-2025
#TIME        : 14:35
#OWNER       : Unknown
#NPOINTS     : 4096
#NCOLUMNS    : 1
#XUNITS      : eV
#YUNITS      : counts
#DATATYPE    : Y
#XPERCHAN    : 9.99778
#OFFSET      : 1.69135
#BEAMKV      : 20
#SIGNALTYPE  : EDS
#ELEVANGLE   : 35
#AZIMANGLE   : 0
#LIVETIME    : 239.787
#REALTIME    : 260.339
#PROBECUR    : 1.02809
#TAUWIND     : 0
#TDEADLYR    : 0
#TACTLYR     : 0.045
#TALWIND     : 0.025
#CHOFFSET    : 0.0
#XLABEL      : Energy (eV)
#YLABEL      : Counts
#XPOSITION   : -4.86857
#YPOSITION   : -3.8453
#ZPOSITION   : 30.9284
#EDSDET      : SD
##SPECIMEN   : SPI MM1 Chalcopyrite[7][all]
##D2STDCMP   : Chalcopyrite,(S:34.9407),(Fe:30.4314),(Cu:34.6279),4.2
##DET_HASH   : 12273538-fd48-a23f-0a19-f1e6fa85caef
##CALIB_HASH : 6abaa72c-aa41-8738-0be9-f592914732f3
##WORKING    : 15.0 mm
##DET_NAME   : EDAX All
##DET_MODE   : MediumLE
#SPECTRUM    :
21,
461,
10742,
3170,
13273,
42305,
11611,
28780,
3356,
4018,
4695,
5165,
5586,
5772,
5380,
5851,
66468,
52090,
10857,
3712,
3839,
3793,
3790,
3885,
3626,
3544,
3384,
3373,
3430,
3185,
3228,
2978,
3047,
3549,
2886,
2774,
2723,
2632,
2715,
2628,
2393,
2404,
2338,
2211,
2368,
17394,
50418,
2550,
1998,
2127,
7537,
4709,
1698,
1689,
1533,
1555,
1837,
24978,
17030,
1442,
1243,
1290,
1419,
3528,
4265,
1192,
985,
989,
959,
890,
933,
881,
881,
893,
886,
817,
763,
737,
671,
682,
683,
663,
628,
599,
625,
552,
508,
507,
510,
485,
481,
477,
432,
396,
355,
361,
364,
333,
312,
354,
277,
279,
248,
306,
266,
245,
221,
221,
183,
167,
171,
183,
153,
141,
133,
129,
107,
129,
111,
88,
100,
106,
87,
73,
80,
65,
77,
50,
49,
40,
34,
51,
32,
29,
29,
19,
13,
10,
14,
9,
11,
3,
5,
2,
4,
4,
4,
0,
0,
0,
0,
0,
1,
0,
1,
2,
1,
0,
1,
2,
0,
1,
1,
0,
0,
1,
0,
0,
0,
0,
0,
0,
0,
0,
1,
0,
1,
0,
0,
0,
0,
0,
0,
0,
0,
2,
1,
1,
0,
1,
0,
0,
0,
0,
0,
0,
0,
0,
0,
0,
0,
1,
0,
0,
0,
0,
0,
0,
0,
0,
0,
0,
0,
0,
0,
0,
0,
0,
0,
0,
0,
0,
0,
0,
0,
0,
0,
0,
0,
0,
0,
0,
0,
0,
0,
0,
0,
0,
0,
0,
0,
0,
0,
0,
0,
0,
0,
0,
0,
0,
0,
0,
0,
0,
0,
0,
0,
0,
0,
0,
0,
0,
0,
0,
0,
0,
0,
0,
0,
0,
0,
0,
0,
0,
0,
0,
0,
0,
0,
0,
0,
0,
0,
0,
0,
0,
0,
0,
0,
0,
0,
0,
0,
0,
#ENDOFDATA   :