File: N132962/Quantification/MMM1/SPI MM1 Anhydrite[0][4].msa
#FORMAT      : EMSA/MAS Spectral Data File
#VERSION     : 1.0
#TITLE       : SPI MM1 Anhydrite[0][all]
#DATE        : 11-MAR-2025
#TIME        : 13:44
#OWNER       : Unknown
#NPOINTS     : 4096
#NCOLUMNS    : 1
#XUNITS      : eV
#YUNITS      : counts
#DATATYPE    : Y
#XPERCHAN    : 9.99778
#OFFSET      : 1.69135
#BEAMKV      : 20
#SIGNALTYPE  : EDS
#ELEVANGLE   : 35
#AZIMANGLE   : 0
#LIVETIME    : 239.835
#REALTIME    : 255.022
#PROBECUR    : 1.02853
#TAUWIND     : 0
#TDEADLYR    : 0
#TACTLYR     : 0.045
#TALWIND     : 0.025
#CHOFFSET    : 0.0
#XLABEL      : Energy (eV)
#YLABEL      : Counts
#XPOSITION   : 4.93669
#YPOSITION   : -5.04917
#ZPOSITION   : 30.9284
#EDSDET      : SD
##SPECIMEN   : SPI MM1 Anhydrite[0][all]
##D2STDCMP   : Anhydrite,(O:47.0085),(S:23.5529),(Ca:29.4387),5.0
##DET_HASH   : 12273538-fd48-a23f-0a19-f1e6fa85caef
##CALIB_HASH : 6abaa72c-aa41-8738-0be9-f592914732f3
##WORKING    : 15.0 mm
##DET_NAME   : EDAX All
##DET_MODE   : MediumLE
#SPECTRUM    :
29,
657,
11784,
3261,
30361,
2278,
2603,
3007,
3648,
4086,
4583,
4644,
4925,
7443,
5994,
4554,
49673,
42230,
7039,
2643,
2794,
2703,
2591,
2601,
2353,
3009,
71142,
24194,
5043,
12369,
1786,
1647,
1582,
1737,
1568,
1469,
1476,
1526,
1391,
1340,
1358,
1229,
1195,
1368,
1142,
1165,
1187,
1017,
993,
978,
1007,
892,
871,
992,
829,
857,
770,
701,
763,
734,
681,
680,
659,
618,
566,
584,
579,
533,
539,
526,
486,
457,
465,
412,
440,
434,
405,
361,
395,
342,
355,
358,
316,
271,
301,
269,
287,
276,
257,
227,
247,
213,
185,
183,
198,
186,
158,
162,
170,
143,
147,
164,
127,
120,
115,
110,
108,
112,
95,
91,
75,
73,
73,
73,
68,
56,
53,
60,
52,
46,
57,
34,
25,
26,
24,
20,
24,
30,
15,
21,
15,
9,
11,
15,
11,
8,
7,
5,
5,
1,
4,
1,
0,
0,
0,
0,
0,
0,
0,
0,
1,
0,
0,
0,
0,
0,
1,
0,
0,
0,
0,
1,
0,
0,
0,
0,
0,
0,
0,
0,
0,
0,
0,
0,
0,
0,
0,
0,
0,
0,
0,
0,
0,
0,
0,
0,
0,
0,
0,
0,
0,
0,
0,
0,
0,
0,
0,
0,
0,
0,
0,
0,
0,
0,
0,
0,
0,
0,
0,
0,
0,
0,
0,
0,
0,
0,
0,
0,
0,
0,
0,
0,
0,
0,
0,
0,
0,
0,
0,
0,
0,
0,
0,
0,
0,
0,
0,
0,
0,
0,
0,
0,
0,
0,
0,
0,
0,
0,
0,
0,
0,
0,
0,
0,
0,
0,
0,
0,
0,
0,
0,
0,
0,
0,
0,
0,
0,
0,
0,
0,
0,
0,
0,
0,
0,
0,
0,
0,
0,
0,
0,
0,
0,
0,
0,
0,
0,
0,
0,
0,
0,
0,
0,
0,
#ENDOFDATA   :