File: N132962/Quantification/MMM1/SPI MM1 Arsenopyrite[6][4].msa
#FORMAT      : EMSA/MAS Spectral Data File
#VERSION     : 1.0
#TITLE       : SPI MM1 Arsenopyrite[6][all]
#DATE        : 11-MAR-2025
#TIME        : 13:41
#OWNER       : Unknown
#NPOINTS     : 4096
#NCOLUMNS    : 1
#XUNITS      : eV
#YUNITS      : counts
#DATATYPE    : Y
#XPERCHAN    : 9.99778
#OFFSET      : 1.69135
#BEAMKV      : 20
#SIGNALTYPE  : EDS
#ELEVANGLE   : 35
#AZIMANGLE   : 0
#LIVETIME    : 239.824
#REALTIME    : 260.777
#PROBECUR    : 1.02853
#TAUWIND     : 0
#TDEADLYR    : 0
#TACTLYR     : 0.045
#TALWIND     : 0.025
#CHOFFSET    : 0.0
#XLABEL      : Energy (eV)
#YLABEL      : Counts
#XPOSITION   : 2.10717
#YPOSITION   : -4.99533
#ZPOSITION   : 30.9284
#EDSDET      : SD
##SPECIMEN   : SPI MM1 Arsenopyrite[6][all]
##D2STDCMP   : Arsenopyrite,(S:19.6897),(Fe:34.2972),(As:46.0131),6.0
##DET_HASH   : 12273538-fd48-a23f-0a19-f1e6fa85caef
##CALIB_HASH : 6abaa72c-aa41-8738-0be9-f592914732f3
##WORKING    : 15.0 mm
##DET_NAME   : EDAX All
##DET_MODE   : MediumLE
#SPECTRUM    :
31,
372,
11671,
3353,
11292,
57726,
4831,
5396,
14674,
146178,
10582,
4325,
4482,
4758,
4733,
4929,
33471,
26745,
7829,
4265,
4195,
4204,
4244,
4027,
4058,
4109,
4155,
3911,
3861,
3854,
3701,
3489,
3475,
3644,
3275,
3069,
3014,
3001,
2958,
2938,
2693,
2765,
2617,
2561,
2695,
19823,
57672,
2860,
2151,
2368,
8573,
5269,
1868,
1803,
1828,
1778,
1626,
1582,
1589,
1525,
1561,
1397,
1505,
1367,
1372,
1331,
1211,
1193,
1215,
1155,
1132,
1071,
1079,
1123,
2450,
17493,
5805,
965,
879,
856,
773,
778,
757,
1904,
2794,
919,
649,
607,
580,
548,
483,
520,
532,
519,
393,
453,
405,
403,
387,
360,
341,
349,
319,
278,
321,
269,
259,
274,
227,
224,
211,
198,
187,
164,
167,
154,
160,
150,
127,
114,
129,
136,
108,
95,
79,
82,
76,
72,
73,
56,
43,
55,
53,
36,
30,
28,
28,
22,
16,
14,
12,
6,
4,
2,
1,
1,
0,
2,
3,
1,
3,
2,
1,
0,
0,
0,
3,
1,
1,
1,
3,
0,
1,
2,
0,
0,
0,
0,
0,
1,
0,
0,
1,
0,
1,
0,
0,
0,
0,
0,
0,
0,
0,
0,
0,
0,
1,
0,
0,
0,
0,
0,
0,
0,
0,
0,
0,
0,
0,
0,
0,
0,
0,
0,
0,
0,
0,
0,
0,
1,
0,
0,
0,
0,
0,
0,
0,
0,
0,
0,
0,
0,
0,
0,
0,
0,
0,
0,
0,
0,
0,
0,
0,
0,
0,
0,
0,
0,
0,
0,
0,
0,
0,
0,
0,
0,
0,
0,
0,
0,
0,
0,
0,
0,
0,
0,
0,
0,
0,
0,
0,
0,
0,
0,
0,
0,
0,
0,
0,
0,
0,
0,
0,
0,
0,
0,
0,
0,
0,
0,
0,
0,
0,
0,
0,
0,
0,
0,
0,
0,
0,
0,
0,
0,
#ENDOFDATA   :