File: N132962/Quantification/MMM1/SPI MM1 Diopside[2][4].msa
#FORMAT      : EMSA/MAS Spectral Data File
#VERSION     : 1.0
#TITLE       : SPI MM1dup Diopside[2][all]
#DATE        : 12-MAR-2025
#TIME        : 15:38
#OWNER       : Unknown
#NPOINTS     : 4096
#NCOLUMNS    : 1
#XUNITS      : eV
#YUNITS      : counts
#DATATYPE    : Y
#XPERCHAN    : 9.99778
#OFFSET      : 1.69135
#BEAMKV      : 20
#SIGNALTYPE  : EDS
#ELEVANGLE   : 35
#AZIMANGLE   : 0
#LIVETIME    : 240.209
#REALTIME    : 255.598
#PROBECUR    : 1.02695
#TAUWIND     : 0
#TDEADLYR    : 0
#TACTLYR     : 0.045
#TALWIND     : 0.025
#CHOFFSET    : 0.0
#XLABEL      : Energy (eV)
#YLABEL      : Counts
#XPOSITION   : 2.19829
#YPOSITION   : 1.3649
#ZPOSITION   : 31.03608
#EDSDET      : SD
##SPECIMEN   : SPI MM1dup Diopside[2][all]
##D2STDCMP   : Diopside,(O:44.3298),(Mg:11.2237),(Si:25.939),(Ca:18.5075)
##DET_HASH   : 12273538-fd48-a23f-0a19-f1e6fa85caef
##CALIB_HASH : 6abaa72c-aa41-8738-0be9-f592914732f3
##WORKING    : 15.0 mm
##DET_NAME   : EDAX All
##DET_MODE   : MediumLE
#SPECTRUM    :
32,
178,
10462,
4012,
35593,
2551,
2742,
3570,
4505,
80816,
4061,
5498,
63385,
30009,
3380,
2522,
3005,
2642,
2699,
2476,
2572,
2526,
2451,
2419,
2221,
2714,
44277,
15769,
3699,
8358,
1741,
1576,
1540,
1502,
1488,
1481,
1329,
1366,
1296,
1418,
1164,
1154,
1195,
1136,
1082,
1363,
1947,
994,
958,
896,
985,
875,
800,
852,
833,
721,
713,
656,
603,
630,
636,
541,
545,
563,
533,
515,
531,
488,
485,
437,
460,
440,
438,
440,
376,
354,
340,
325,
329,
323,
318,
276,
271,
279,
266,
246,
245,
202,
223,
191,
186,
185,
178,
190,
184,
149,
137,
123,
135,
123,
135,
116,
126,
107,
98,
92,
79,
76,
81,
80,
74,
66,
53,
67,
50,
45,
65,
49,
40,
41,
35,
43,
32,
24,
32,
18,
34,
20,
18,
20,
14,
14,
10,
8,
6,
6,
3,
6,
12,
4,
4,
5,
0,
0,
1,
1,
0,
0,
0,
0,
1,
0,
0,
0,
0,
0,
0,
0,
0,
0,
0,
0,
0,
0,
0,
0,
0,
0,
0,
0,
0,
0,
0,
0,
0,
0,
0,
0,
0,
0,
0,
0,
0,
0,
0,
0,
0,
0,
0,
0,
0,
0,
0,
0,
0,
0,
0,
0,
0,
0,
0,
0,
0,
0,
0,
0,
0,
0,
0,
0,
0,
0,
0,
0,
0,
0,
0,
0,
0,
0,
0,
0,
0,
0,
0,
0,
0,
0,
0,
0,
0,
0,
0,
0,
0,
0,
0,
0,
0,
0,
0,
0,
0,
0,
0,
0,
0,
0,
0,
0,
0,
0,
0,
0,
0,
0,
0,
0,
0,
0,
0,
0,
0,
0,
0,
0,
0,
0,
0,
0,
0,
0,
0,
0,
0,
0,
0,
0,
0,
0,
0,
0,
0,
0,
0,
0,
0,
0,
0,
0,
0,
0,
0,
0,
#ENDOFDATA   :