File: N132962/Quantification/MMM1/SPI MM1 Albite[3][4].msa
#FORMAT      : EMSA/MAS Spectral Data File
#VERSION     : 1.0
#TITLE       : SPI MM1 Albite[3][all]
#DATE        : 11-MAR-2025
#TIME        : 12:52
#OWNER       : Unknown
#NPOINTS     : 4096
#NCOLUMNS    : 1
#XUNITS      : eV
#YUNITS      : counts
#DATATYPE    : Y
#XPERCHAN    : 9.99778
#OFFSET      : 1.69135
#BEAMKV      : 20
#SIGNALTYPE  : EDS
#ELEVANGLE   : 35
#AZIMANGLE   : 0
#LIVETIME    : 239.854
#REALTIME    : 255.975
#PROBECUR    : 1.02699
#TAUWIND     : 0
#TDEADLYR    : 0
#TACTLYR     : 0.045
#TALWIND     : 0.025
#CHOFFSET    : 0.0
#XLABEL      : Energy (eV)
#YLABEL      : Counts
#XPOSITION   : 3.48227
#YPOSITION   : -7.10068
#ZPOSITION   : 30.9284
#EDSDET      : SD
##SPECIMEN   : SPI MM1 Albite[3][all]
##D2STDCMP   : Albite,(O:48.8112),(Na:8.7674),(Al:10.2897),(Si:32.1316)
##DET_HASH   : 12273538-fd48-a23f-0a19-f1e6fa85caef
##CALIB_HASH : 6abaa72c-aa41-8738-0be9-f592914732f3
##WORKING    : 15.0 mm
##DET_NAME   : EDAX All
##DET_MODE   : MediumLE
#SPECTRUM    :
27,
199,
7726,
6511,
67339,
2089,
2747,
14271,
5677,
3744,
9385,
33350,
73742,
34805,
2172,
2044,
2727,
2133,
2146,
2170,
2125,
2073,
1856,
2261,
2354,
2228,
2107,
1793,
1675,
1672,
1529,
1504,
1389,
1374,
1355,
1241,
1273,
1171,
1153,
1122,
1074,
1037,
1013,
962,
928,
935,
926,
888,
808,
762,
758,
692,
648,
677,
659,
627,
584,
608,
569,
563,
533,
543,
481,
497,
452,
410,
420,
401,
443,
387,
384,
358,
315,
322,
326,
303,
292,
277,
275,
287,
270,
223,
279,
239,
218,
225,
172,
207,
180,
173,
187,
164,
158,
133,
131,
125,
125,
124,
114,
110,
102,
107,
95,
88,
93,
76,
67,
62,
56,
60,
65,
51,
39,
52,
51,
38,
42,
37,
36,
22,
26,
21,
25,
24,
18,
26,
16,
20,
11,
17,
10,
9,
9,
11,
6,
8,
5,
6,
2,
3,
1,
1,
0,
0,
0,
0,
0,
0,
1,
0,
0,
0,
0,
0,
0,
0,
0,
0,
0,
0,
0,
0,
0,
0,
0,
0,
0,
0,
0,
0,
0,
0,
0,
0,
0,
0,
0,
0,
0,
0,
0,
0,
0,
0,
0,
0,
0,
0,
0,
0,
0,
0,
0,
0,
0,
0,
0,
0,
0,
0,
0,
0,
0,
0,
0,
0,
0,
0,
0,
0,
0,
0,
0,
0,
0,
0,
0,
0,
0,
0,
0,
0,
0,
0,
0,
0,
0,
0,
0,
0,
0,
0,
0,
0,
0,
0,
0,
0,
0,
0,
0,
0,
0,
0,
0,
0,
0,
0,
0,
0,
0,
0,
0,
0,
0,
0,
0,
0,
0,
0,
0,
0,
0,
0,
0,
0,
0,
0,
0,
0,
0,
0,
0,
0,
0,
0,
0,
0,
0,
0,
0,
0,
0,
0,
0,
0,
0,
0,
0,
0,
0,
0,
0,
0,
#ENDOFDATA   :