File: N132962/Quantification/MMM1/SPI MM1 Jadeite[3][4].msa
#FORMAT      : EMSA/MAS Spectral Data File
#VERSION     : 1.0
#TITLE       : SPI MM1dup Jadeite[3][all]
#DATE        : 12-MAR-2025
#TIME        : 16:32
#OWNER       : Unknown
#NPOINTS     : 4096
#NCOLUMNS    : 1
#XUNITS      : eV
#YUNITS      : counts
#DATATYPE    : Y
#XPERCHAN    : 9.99778
#OFFSET      : 1.69135
#BEAMKV      : 20
#SIGNALTYPE  : EDS
#ELEVANGLE   : 35
#AZIMANGLE   : 0
#LIVETIME    : 239.756
#REALTIME    : 255.534
#PROBECUR    : 1.02709
#TAUWIND     : 0
#TDEADLYR    : 0
#TACTLYR     : 0.045
#TALWIND     : 0.025
#CHOFFSET    : 0.0
#XLABEL      : Energy (eV)
#YLABEL      : Counts
#XPOSITION   : 0.96273
#YPOSITION   : 4.30414
#ZPOSITION   : 31.03608
#EDSDET      : SD
##SPECIMEN   : SPI MM1dup Jadeite[3][all]
##D2STDCMP   : Jadeite,(O:47.4904),(Na:11.3733),(Al:13.348),(Si:27.7883),5.0
##DET_HASH   : 12273538-fd48-a23f-0a19-f1e6fa85caef
##CALIB_HASH : 6abaa72c-aa41-8738-0be9-f592914732f3
##WORKING    : 15.0 mm
##DET_NAME   : EDAX All
##DET_MODE   : MediumLE
#SPECTRUM    :
21,
189,
7688,
6273,
66241,
2072,
2832,
18175,
6456,
3940,
10268,
39470,
60322,
28511,
2158,
2125,
2604,
2155,
2236,
2069,
2200,
2015,
1922,
2216,
1902,
2077,
1974,
1734,
1617,
1607,
1612,
1436,
1456,
1369,
1284,
1282,
1197,
1207,
1156,
1164,
1076,
1084,
1019,
969,
925,
942,
986,
801,
814,
738,
817,
752,
769,
733,
683,
627,
626,
608,
569,
550,
524,
535,
518,
531,
451,
435,
425,
431,
393,
400,
376,
361,
338,
331,
332,
360,
307,
275,
273,
259,
235,
278,
257,
203,
214,
185,
190,
209,
164,
149,
152,
160,
136,
122,
138,
138,
133,
108,
114,
113,
96,
109,
104,
85,
76,
70,
75,
85,
49,
67,
63,
59,
48,
43,
46,
43,
36,
36,
45,
33,
32,
28,
23,
24,
14,
17,
21,
10,
10,
20,
11,
13,
7,
6,
4,
3,
4,
5,
0,
3,
2,
0,
0,
1,
0,
0,
0,
0,
0,
0,
0,
0,
0,
0,
0,
0,
0,
0,
0,
0,
0,
0,
0,
0,
0,
0,
0,
0,
0,
0,
0,
0,
0,
0,
0,
0,
0,
0,
0,
0,
0,
0,
0,
0,
0,
0,
0,
0,
0,
0,
0,
0,
0,
0,
0,
0,
0,
0,
0,
0,
0,
0,
0,
0,
0,
0,
0,
0,
0,
0,
0,
0,
0,
0,
0,
0,
0,
0,
0,
0,
0,
0,
0,
0,
0,
0,
0,
0,
0,
0,
0,
0,
0,
0,
0,
0,
0,
0,
0,
1,
0,
0,
0,
0,
0,
0,
0,
0,
0,
0,
0,
0,
0,
0,
0,
0,
0,
0,
0,
0,
0,
0,
0,
0,
0,
0,
0,
0,
0,
0,
0,
0,
0,
0,
0,
0,
0,
0,
0,
0,
0,
0,
0,
0,
0,
0,
0,
0,
0,
0,
0,
0,
0,
0,
#ENDOFDATA   :