File: N132962/Quantification/MMM1/SPI MM1 Andradite[5][4].msa
#FORMAT      : EMSA/MAS Spectral Data File
#VERSION     : 1.0
#TITLE       : SPI MM1 Andradite[5][all]
#DATE        : 11-MAR-2025
#TIME        : 13:12
#OWNER       : Unknown
#NPOINTS     : 4096
#NCOLUMNS    : 1
#XUNITS      : eV
#YUNITS      : counts
#DATATYPE    : Y
#XPERCHAN    : 9.99778
#OFFSET      : 1.69135
#BEAMKV      : 20
#SIGNALTYPE  : EDS
#ELEVANGLE   : 35
#AZIMANGLE   : 0
#LIVETIME    : 239.882
#REALTIME    : 255.401
#PROBECUR    : 1.02699
#TAUWIND     : 0
#TDEADLYR    : 0
#TACTLYR     : 0.045
#TALWIND     : 0.025
#CHOFFSET    : 0.0
#XLABEL      : Energy (eV)
#YLABEL      : Counts
#XPOSITION   : -2.19565
#YPOSITION   : -8.06884
#ZPOSITION   : 30.9284
#EDSDET      : SD
##SPECIMEN   : SPI MM1 Andradite[5][all]
##D2STDCMP   : Andradite,(O:37.7805),(Si:16.5802),(Ca:23.6603),(Fe:21.979),3.86
##DET_HASH   : 12273538-fd48-a23f-0a19-f1e6fa85caef
##CALIB_HASH : 6abaa72c-aa41-8738-0be9-f592914732f3
##WORKING    : 15.0 mm
##DET_NAME   : EDAX All
##DET_MODE   : MediumLE
#SPECTRUM    :
29,
183,
12865,
3929,
31559,
13868,
2481,
2842,
3419,
4117,
5665,
11394,
42258,
21242,
4475,
3428,
3600,
3362,
3353,
3286,
3305,
3058,
3092,
3048,
2869,
3391,
61816,
21238,
4881,
11176,
2078,
1968,
1908,
1968,
1830,
1752,
1699,
1630,
1619,
1719,
1565,
1567,
1911,
1499,
1447,
9027,
25914,
1513,
1140,
1249,
3965,
2607,
952,
1008,
933,
921,
876,
846,
927,
787,
744,
707,
733,
746,
665,
610,
608,
653,
623,
578,
561,
542,
566,
495,
487,
461,
469,
435,
437,
403,
357,
377,
388,
356,
358,
309,
300,
356,
292,
309,
268,
256,
231,
238,
254,
213,
221,
192,
161,
156,
171,
171,
156,
150,
124,
117,
118,
107,
108,
98,
94,
86,
78,
71,
85,
59,
70,
61,
55,
48,
55,
51,
53,
49,
43,
31,
27,
27,
29,
17,
22,
25,
17,
17,
13,
13,
8,
10,
10,
3,
6,
4,
1,
1,
1,
0,
1,
1,
1,
0,
0,
0,
0,
0,
0,
0,
0,
0,
1,
0,
0,
0,
1,
0,
0,
0,
0,
0,
0,
0,
0,
0,
1,
0,
0,
0,
0,
0,
0,
0,
0,
0,
0,
0,
0,
0,
0,
0,
0,
0,
0,
0,
0,
0,
0,
0,
0,
0,
0,
0,
0,
0,
0,
0,
0,
0,
0,
0,
0,
0,
0,
0,
0,
0,
0,
0,
0,
0,
0,
0,
0,
0,
0,
0,
0,
0,
0,
0,
0,
0,
0,
0,
0,
0,
0,
0,
0,
0,
0,
0,
0,
0,
0,
0,
0,
0,
0,
0,
0,
0,
0,
0,
0,
0,
0,
0,
0,
0,
0,
0,
0,
0,
0,
0,
0,
0,
0,
0,
0,
0,
0,
0,
0,
0,
0,
0,
0,
0,
0,
0,
0,
0,
0,
0,
0,
0,
0,
0,
0,
0,
0,
0,
0,
0,
#ENDOFDATA   :