File: N132962/Quantification/MMM1/SPI MM1 Dolomite[7][4].msa
#FORMAT      : EMSA/MAS Spectral Data File
#VERSION     : 1.0
#TITLE       : SPI MM1dup Dolomite[7][all]
#DATE        : 12-MAR-2025
#TIME        : 15:53
#OWNER       : Unknown
#NPOINTS     : 4096
#NCOLUMNS    : 1
#XUNITS      : eV
#YUNITS      : counts
#DATATYPE    : Y
#XPERCHAN    : 9.99778
#OFFSET      : 1.69135
#BEAMKV      : 20
#SIGNALTYPE  : EDS
#ELEVANGLE   : 35
#AZIMANGLE   : 0
#LIVETIME    : 239.914
#REALTIME    : 250.79
#PROBECUR    : 1.02695
#TAUWIND     : 0
#TDEADLYR    : 0
#TACTLYR     : 0.045
#TALWIND     : 0.025
#CHOFFSET    : 0.0
#XLABEL      : Energy (eV)
#YLABEL      : Counts
#XPOSITION   : -0.11612
#YPOSITION   : 1.98936
#ZPOSITION   : 31.03608
#EDSDET      : SD
##SPECIMEN   : SPI MM1dup Dolomite[7][all]
##DET_HASH   : 12273538-fd48-a23f-0a19-f1e6fa85caef
##CALIB_HASH : 6abaa72c-aa41-8738-0be9-f592914732f3
##WORKING    : 15.0 mm
##DET_NAME   : EDAX All
##DET_MODE   : MediumLE
#SPECTRUM    :
24,
220,
26647,
3755,
35596,
1554,
2071,
2436,
3440,
86641,
2874,
3028,
3237,
3422,
3942,
2922,
2931,
2780,
2733,
2566,
2441,
2334,
2185,
2272,
2062,
2495,
55144,
19110,
4006,
9344,
1525,
1384,
1266,
1193,
1214,
1258,
1152,
1125,
1102,
1053,
949,
965,
1043,
912,
863,
909,
1019,
805,
794,
710,
740,
676,
669,
728,
636,
659,
608,
568,
591,
536,
511,
483,
536,
429,
467,
430,
424,
399,
420,
405,
334,
332,
302,
354,
298,
323,
300,
290,
264,
255,
247,
224,
226,
246,
203,
201,
205,
181,
167,
177,
184,
153,
158,
127,
125,
117,
113,
95,
107,
91,
95,
96,
87,
85,
89,
58,
72,
65,
54,
54,
63,
50,
48,
47,
47,
25,
36,
40,
25,
35,
24,
21,
21,
19,
19,
20,
14,
22,
15,
8,
7,
10,
9,
7,
10,
4,
5,
3,
3,
1,
3,
1,
1,
0,
0,
0,
0,
0,
0,
1,
0,
0,
0,
0,
0,
0,
0,
0,
0,
0,
0,
0,
0,
0,
0,
0,
0,
0,
0,
0,
0,
0,
1,
0,
0,
0,
0,
0,
0,
0,
0,
0,
0,
0,
0,
0,
0,
0,
0,
0,
0,
0,
0,
0,
0,
0,
0,
0,
0,
0,
0,
0,
0,
0,
0,
0,
0,
0,
0,
0,
0,
0,
0,
0,
0,
0,
0,
0,
0,
0,
0,
0,
0,
0,
0,
0,
0,
0,
0,
0,
0,
0,
0,
0,
0,
0,
0,
0,
0,
0,
0,
0,
0,
0,
0,
0,
0,
0,
0,
0,
0,
0,
0,
0,
0,
0,
0,
0,
0,
0,
0,
0,
0,
0,
0,
0,
0,
0,
0,
0,
0,
0,
0,
0,
0,
0,
0,
0,
0,
0,
0,
0,
0,
0,
0,
0,
0,
0,
0,
0,
0,
0,
0,
0,
#ENDOFDATA   :