File: N132962/Quantification/MMM1/SPI MM1 Calcite[3][4].msa
#FORMAT      : EMSA/MAS Spectral Data File
#VERSION     : 1.0
#TITLE       : SPI MM1 Calcite[3][all]
#DATE        : 11-MAR-2025
#TIME        : 14:15
#OWNER       : Unknown
#NPOINTS     : 4096
#NCOLUMNS    : 1
#XUNITS      : eV
#YUNITS      : counts
#DATATYPE    : Y
#XPERCHAN    : 9.99778
#OFFSET      : 1.69135
#BEAMKV      : 20
#SIGNALTYPE  : EDS
#ELEVANGLE   : 35
#AZIMANGLE   : 0
#LIVETIME    : 239.905
#REALTIME    : 252.1939
#PROBECUR    : 1.02902
#TAUWIND     : 0
#TDEADLYR    : 0
#TACTLYR     : 0.045
#TALWIND     : 0.025
#CHOFFSET    : 0.0
#XLABEL      : Energy (eV)
#YLABEL      : Counts
#XPOSITION   : -0.11887
#YPOSITION   : -2.84361
#ZPOSITION   : 30.9284
#EDSDET      : SD
##SPECIMEN   : SPI MM1 Calcite[3][all]
##D2STDCMP   : Calcite,(C:12.0003),(O:47.9565),(Ca:40.0432),5.0
##DET_HASH   : 12273538-fd48-a23f-0a19-f1e6fa85caef
##CALIB_HASH : 6abaa72c-aa41-8738-0be9-f592914732f3
##WORKING    : 15.0 mm
##DET_NAME   : EDAX All
##DET_MODE   : MediumLE
#SPECTRUM    :
25,
285,
39074,
2877,
23874,
1637,
2090,
2519,
2927,
3498,
3773,
4024,
4210,
4344,
5680,
3510,
3531,
3202,
3168,
3123,
2942,
2856,
2798,
2766,
2433,
3432,
103961,
34680,
6488,
16877,
1657,
1430,
1484,
1462,
1394,
1298,
1336,
1309,
1237,
1191,
1169,
1093,
1224,
1117,
1064,
1023,
991,
929,
862,
902,
841,
857,
827,
942,
761,
734,
718,
699,
696,
615,
606,
605,
586,
585,
571,
504,
477,
479,
445,
486,
452,
399,
428,
385,
372,
368,
347,
348,
307,
344,
323,
310,
286,
302,
264,
261,
243,
213,
193,
209,
200,
191,
184,
178,
187,
155,
143,
134,
134,
139,
110,
119,
108,
102,
110,
105,
77,
65,
74,
53,
69,
65,
63,
63,
49,
43,
39,
43,
34,
49,
33,
26,
28,
30,
27,
19,
27,
19,
21,
15,
13,
13,
10,
4,
4,
13,
3,
4,
4,
3,
1,
1,
2,
0,
0,
0,
0,
0,
0,
1,
0,
0,
0,
0,
0,
0,
0,
0,
0,
0,
0,
0,
0,
0,
0,
0,
0,
0,
0,
1,
0,
0,
0,
0,
0,
0,
0,
0,
0,
0,
0,
0,
0,
0,
0,
0,
0,
0,
0,
0,
0,
0,
0,
0,
0,
0,
0,
0,
0,
0,
0,
0,
0,
0,
0,
0,
0,
0,
0,
0,
0,
0,
0,
0,
0,
0,
0,
0,
0,
0,
0,
0,
0,
0,
0,
0,
0,
0,
0,
0,
0,
0,
0,
0,
0,
0,
0,
0,
0,
0,
0,
0,
0,
0,
0,
0,
0,
0,
0,
0,
0,
0,
0,
0,
0,
0,
0,
0,
0,
0,
0,
0,
0,
0,
0,
0,
0,
0,
0,
0,
0,
0,
0,
0,
0,
0,
0,
0,
0,
0,
0,
0,
0,
0,
0,
0,
0,
0,
0,
0,
0,
0,
0,
0,
#ENDOFDATA   :