File: N132962/Quantification/MMM1/SPI MM1 Crocoite[7][4].msa
#FORMAT      : EMSA/MAS Spectral Data File
#VERSION     : 1.0
#TITLE       : SPI MM1dup Crocoite[7][all]
#DATE        : 12-MAR-2025
#TIME        : 13:58
#OWNER       : Unknown
#NPOINTS     : 4096
#NCOLUMNS    : 1
#XUNITS      : eV
#YUNITS      : counts
#DATATYPE    : Y
#XPERCHAN    : 9.99778
#OFFSET      : 1.69135
#BEAMKV      : 20
#SIGNALTYPE  : EDS
#ELEVANGLE   : 35
#AZIMANGLE   : 0
#LIVETIME    : 239.833
#REALTIME    : 261.996
#PROBECUR    : 1.02627
#TAUWIND     : 0
#TDEADLYR    : 0
#TACTLYR     : 0.045
#TALWIND     : 0.025
#CHOFFSET    : 0.0
#XLABEL      : Energy (eV)
#YLABEL      : Counts
#XPOSITION   : -1.14437
#YPOSITION   : -0.63604
#ZPOSITION   : 31.03608
#EDSDET      : SD
##SPECIMEN   : SPI MM1dup Crocoite[7][all]
##DET_HASH   : 12273538-fd48-a23f-0a19-f1e6fa85caef
##CALIB_HASH : 6abaa72c-aa41-8738-0be9-f592914732f3
##WORKING    : 15.0 mm
##DET_NAME   : EDAX All
##DET_MODE   : MediumLE
#SPECTRUM    :
18,
721,
18020,
6587,
30049,
6322,
5318,
5820,
6450,
7352,
8061,
8552,
9126,
18154,
8483,
8985,
17168,
139270,
23533,
11305,
4911,
5357,
6819,
5062,
4751,
4883,
4978,
4730,
4446,
4547,
4572,
4517,
4485,
4449,
4464,
4224,
4222,
4194,
14559,
32569,
3992,
3977,
6976,
6062,
3373,
3486,
3654,
3127,
3176,
3179,
3052,
3012,
2837,
3028,
2967,
2757,
2763,
2615,
2512,
2529,
2465,
2369,
2317,
2320,
2203,
2436,
2439,
2063,
1996,
1857,
1774,
1872,
1728,
1770,
2764,
10102,
5492,
1612,
1538,
1404,
1433,
1392,
1322,
1288,
1180,
1137,
1191,
1240,
1242,
1680,
4597,
1954,
1139,
1098,
864,
776,
752,
704,
688,
654,
607,
586,
560,
571,
532,
750,
679,
514,
515,
453,
424,
363,
354,
343,
310,
291,
279,
249,
239,
231,
234,
231,
216,
181,
181,
148,
166,
145,
143,
134,
104,
100,
91,
79,
56,
67,
51,
49,
36,
30,
21,
14,
12,
7,
2,
3,
5,
7,
3,
2,
6,
2,
3,
1,
1,
0,
2,
1,
2,
2,
0,
2,
1,
2,
2,
4,
0,
0,
3,
0,
0,
1,
3,
1,
0,
0,
1,
0,
0,
1,
0,
1,
1,
0,
0,
0,
0,
2,
1,
0,
1,
1,
0,
0,
0,
0,
2,
1,
1,
0,
0,
0,
0,
0,
0,
0,
0,
0,
0,
0,
0,
0,
1,
0,
0,
0,
0,
1,
0,
0,
0,
0,
0,
0,
0,
0,
0,
0,
0,
0,
0,
0,
0,
0,
0,
0,
0,
0,
0,
0,
0,
0,
0,
0,
0,
0,
0,
0,
1,
0,
0,
0,
1,
0,
0,
0,
0,
0,
0,
0,
0,
0,
0,
0,
0,
0,
0,
0,
0,
0,
0,
0,
0,
0,
0,
0,
0,
0,
0,
0,
0,
0,
0,
0,
0,
0,
0,
0,
0,
0,
0,
0,
0,
0,
#ENDOFDATA   :