File: N132962/Quantification/MMM1/SPI MM1 Chalcopyrite[4][4].msa
#FORMAT      : EMSA/MAS Spectral Data File
#VERSION     : 1.0
#TITLE       : SPI MM1 Chalcopyrite[4][all]
#DATE        : 11-MAR-2025
#TIME        : 14:31
#OWNER       : Unknown
#NPOINTS     : 4096
#NCOLUMNS    : 1
#XUNITS      : eV
#YUNITS      : counts
#DATATYPE    : Y
#XPERCHAN    : 9.99778
#OFFSET      : 1.69135
#BEAMKV      : 20
#SIGNALTYPE  : EDS
#ELEVANGLE   : 35
#AZIMANGLE   : 0
#LIVETIME    : 239.844
#REALTIME    : 260.399
#PROBECUR    : 1.02809
#TAUWIND     : 0
#TDEADLYR    : 0
#TACTLYR     : 0.045
#TALWIND     : 0.025
#CHOFFSET    : 0.0
#XLABEL      : Energy (eV)
#YLABEL      : Counts
#XPOSITION   : -4.90951
#YPOSITION   : -3.9268
#ZPOSITION   : 30.9284
#EDSDET      : SD
##SPECIMEN   : SPI MM1 Chalcopyrite[4][all]
##D2STDCMP   : Chalcopyrite,(S:34.9407),(Fe:30.4314),(Cu:34.6279),4.2
##DET_HASH   : 12273538-fd48-a23f-0a19-f1e6fa85caef
##CALIB_HASH : 6abaa72c-aa41-8738-0be9-f592914732f3
##WORKING    : 15.0 mm
##DET_NAME   : EDAX All
##DET_MODE   : MediumLE
#SPECTRUM    :
35,
418,
10785,
3293,
13614,
42210,
11762,
28584,
3470,
4021,
4641,
5109,
5567,
5754,
5316,
5931,
67198,
51908,
10945,
3831,
3793,
3784,
3725,
3844,
3647,
3582,
3490,
3410,
3414,
3220,
3169,
3100,
3039,
3501,
3031,
2819,
2673,
2774,
2527,
2591,
2485,
2368,
2339,
2242,
2319,
17513,
50345,
2421,
2006,
2117,
7548,
4619,
1684,
1667,
1590,
1469,
1912,
25014,
16944,
1468,
1252,
1235,
1412,
3448,
4172,
1148,
982,
999,
897,
914,
953,
902,
909,
894,
977,
793,
770,
739,
690,
713,
694,
657,
623,
604,
588,
570,
541,
520,
508,
489,
453,
405,
409,
420,
363,
373,
331,
308,
309,
313,
280,
300,
267,
269,
248,
223,
214,
204,
197,
172,
174,
164,
155,
148,
139,
128,
128,
106,
110,
99,
94,
101,
84,
96,
84,
66,
62,
54,
36,
38,
45,
40,
36,
27,
25,
16,
12,
16,
16,
8,
10,
8,
3,
3,
3,
1,
4,
1,
0,
1,
2,
0,
0,
2,
0,
0,
0,
2,
0,
1,
0,
0,
1,
0,
0,
1,
0,
1,
0,
1,
0,
1,
0,
0,
0,
0,
1,
1,
0,
0,
0,
0,
0,
0,
1,
0,
0,
0,
0,
0,
0,
0,
0,
0,
0,
0,
0,
0,
0,
0,
0,
0,
0,
0,
0,
0,
0,
0,
0,
0,
0,
0,
0,
0,
0,
0,
0,
0,
0,
0,
0,
0,
0,
0,
0,
0,
0,
0,
0,
0,
0,
0,
0,
0,
0,
0,
0,
0,
0,
0,
0,
0,
0,
0,
0,
0,
0,
0,
0,
0,
0,
0,
0,
0,
0,
0,
0,
0,
0,
0,
0,
0,
0,
0,
0,
0,
0,
1,
0,
0,
0,
0,
0,
0,
0,
0,
0,
0,
0,
0,
0,
0,
0,
0,
0,
0,
0,
0,
0,
0,
0,
0,
0,
0,
#ENDOFDATA   :