File: N132962/Quantification/MMM1/SPI MM1 Chalcopyrite[0][4].msa
#FORMAT      : EMSA/MAS Spectral Data File
#VERSION     : 1.0
#TITLE       : SPI MM1 Chalcopyrite[0][all]
#DATE        : 11-MAR-2025
#TIME        : 14:26
#OWNER       : Unknown
#NPOINTS     : 4096
#NCOLUMNS    : 1
#XUNITS      : eV
#YUNITS      : counts
#DATATYPE    : Y
#XPERCHAN    : 9.99778
#OFFSET      : 1.69135
#BEAMKV      : 20
#SIGNALTYPE  : EDS
#ELEVANGLE   : 35
#AZIMANGLE   : 0
#LIVETIME    : 239.883
#REALTIME    : 260.4547
#PROBECUR    : 1.02809
#TAUWIND     : 0
#TDEADLYR    : 0
#TACTLYR     : 0.045
#TALWIND     : 0.025
#CHOFFSET    : 0.0
#XLABEL      : Energy (eV)
#YLABEL      : Counts
#XPOSITION   : -4.89738
#YPOSITION   : -3.86636
#ZPOSITION   : 30.9284
#EDSDET      : SD
##SPECIMEN   : SPI MM1 Chalcopyrite[0][all]
##D2STDCMP   : Chalcopyrite,(S:34.9407),(Fe:30.4314),(Cu:34.6279),4.2
##DET_HASH   : 12273538-fd48-a23f-0a19-f1e6fa85caef
##CALIB_HASH : 6abaa72c-aa41-8738-0be9-f592914732f3
##WORKING    : 15.0 mm
##DET_NAME   : EDAX All
##DET_MODE   : MediumLE
#SPECTRUM    :
21,
415,
10757,
3293,
13544,
42694,
11599,
28400,
3554,
4066,
4728,
5228,
5443,
5812,
5419,
5836,
66003,
51886,
10855,
3664,
3767,
3820,
3793,
3899,
3614,
3634,
3495,
3409,
3359,
3243,
3205,
3093,
3078,
3507,
2857,
2902,
2696,
2743,
2572,
2463,
2539,
2458,
2245,
2226,
2392,
17732,
50820,
2524,
2025,
2049,
7563,
4677,
1671,
1629,
1588,
1480,
1866,
25458,
16823,
1415,
1316,
1293,
1446,
3490,
4359,
1109,
998,
1001,
947,
1012,
893,
864,
876,
918,
894,
860,
725,
723,
735,
707,
714,
645,
611,
584,
605,
559,
526,
470,
493,
446,
480,
432,
438,
397,
397,
387,
367,
335,
297,
317,
281,
268,
280,
267,
233,
236,
224,
208,
168,
192,
174,
171,
175,
154,
155,
147,
114,
91,
113,
119,
111,
94,
85,
64,
71,
69,
65,
64,
47,
57,
32,
30,
29,
42,
20,
22,
24,
17,
19,
12,
11,
9,
3,
2,
2,
0,
2,
2,
1,
1,
3,
1,
2,
2,
1,
2,
1,
0,
1,
0,
0,
1,
0,
2,
0,
0,
0,
0,
1,
1,
1,
0,
0,
1,
0,
0,
0,
0,
0,
0,
0,
0,
0,
0,
0,
0,
0,
2,
0,
0,
1,
0,
0,
0,
0,
0,
0,
0,
1,
0,
0,
0,
0,
0,
0,
0,
0,
0,
0,
0,
0,
0,
0,
0,
0,
0,
0,
0,
0,
0,
0,
0,
0,
0,
0,
0,
0,
0,
0,
0,
0,
0,
0,
0,
0,
0,
0,
0,
0,
0,
0,
0,
0,
0,
0,
0,
0,
0,
0,
0,
0,
0,
0,
0,
0,
0,
0,
0,
0,
0,
0,
0,
0,
0,
0,
0,
0,
0,
0,
0,
0,
0,
0,
0,
0,
0,
0,
0,
0,
0,
0,
0,
0,
0,
0,
0,
0,
0,
0,
0,
0,
0,
0,
0,
#ENDOFDATA   :