File: N132962/Quantification/MMM1/SPI MM1 Crocoite[3][4].msa
#FORMAT      : EMSA/MAS Spectral Data File
#VERSION     : 1.0
#TITLE       : SPI MM1dup Crocoite[3][all]
#DATE        : 12-MAR-2025
#TIME        : 13:53
#OWNER       : Unknown
#NPOINTS     : 4096
#NCOLUMNS    : 1
#XUNITS      : eV
#YUNITS      : counts
#DATATYPE    : Y
#XPERCHAN    : 9.99778
#OFFSET      : 1.69135
#BEAMKV      : 20
#SIGNALTYPE  : EDS
#ELEVANGLE   : 35
#AZIMANGLE   : 0
#LIVETIME    : 239.977
#REALTIME    : 262.117
#PROBECUR    : 1.02627
#TAUWIND     : 0
#TDEADLYR    : 0
#TACTLYR     : 0.045
#TALWIND     : 0.025
#CHOFFSET    : 0.0
#XLABEL      : Energy (eV)
#YLABEL      : Counts
#XPOSITION   : -1.16505
#YPOSITION   : -0.70781
#ZPOSITION   : 31.03608
#EDSDET      : SD
##SPECIMEN   : SPI MM1dup Crocoite[3][all]
##DET_HASH   : 12273538-fd48-a23f-0a19-f1e6fa85caef
##CALIB_HASH : 6abaa72c-aa41-8738-0be9-f592914732f3
##WORKING    : 15.0 mm
##DET_NAME   : EDAX All
##DET_MODE   : MediumLE
#SPECTRUM    :
25,
783,
18172,
6576,
29908,
6386,
5351,
5916,
6511,
7347,
7952,
8472,
9096,
17933,
8530,
9033,
17369,
138162,
23269,
11261,
5026,
5576,
6817,
5089,
4796,
4796,
4872,
4827,
4499,
4539,
4443,
4459,
4367,
4364,
4470,
4331,
4230,
4208,
14268,
32709,
3994,
3932,
6867,
5980,
3407,
3509,
3623,
3238,
3099,
3016,
3025,
2911,
2970,
2985,
2882,
2817,
2746,
2517,
2604,
2459,
2391,
2364,
2290,
2259,
2206,
2442,
2512,
2065,
1976,
1929,
1889,
1883,
1815,
1694,
2660,
9906,
5722,
1639,
1429,
1447,
1386,
1400,
1314,
1206,
1157,
1198,
1215,
1222,
1198,
1695,
4479,
1967,
1081,
1008,
848,
748,
722,
684,
682,
660,
632,
580,
559,
561,
594,
782,
645,
548,
544,
458,
418,
404,
365,
338,
332,
307,
315,
271,
261,
239,
212,
229,
193,
146,
152,
147,
150,
124,
150,
112,
116,
106,
99,
85,
71,
63,
59,
56,
31,
24,
36,
20,
10,
1,
6,
1,
2,
2,
1,
6,
2,
3,
1,
6,
1,
3,
0,
1,
2,
1,
1,
3,
2,
4,
1,
4,
3,
1,
1,
1,
1,
2,
1,
1,
2,
0,
0,
0,
1,
1,
0,
1,
3,
0,
0,
0,
0,
0,
0,
1,
0,
0,
1,
1,
1,
1,
1,
0,
0,
0,
0,
1,
1,
1,
0,
0,
0,
1,
0,
0,
0,
0,
1,
0,
0,
0,
0,
0,
0,
0,
0,
0,
0,
0,
0,
0,
0,
0,
0,
0,
0,
0,
0,
0,
0,
0,
0,
0,
0,
0,
0,
0,
0,
0,
0,
0,
0,
0,
0,
0,
0,
0,
0,
0,
0,
0,
0,
0,
0,
0,
0,
0,
0,
0,
0,
0,
0,
0,
0,
0,
0,
0,
0,
0,
0,
0,
0,
0,
0,
0,
0,
0,
0,
0,
0,
0,
0,
0,
0,
0,
0,
0,
0,
0,
#ENDOFDATA   :