File: N132962/Quantification/MMM1/SPI MM1 Chromite[6][4].msa
#FORMAT      : EMSA/MAS Spectral Data File
#VERSION     : 1.0
#TITLE       : SPI MM1dup Chromite[6][all]
#DATE        : 12-MAR-2025
#TIME        : 14:15
#OWNER       : Unknown
#NPOINTS     : 4096
#NCOLUMNS    : 1
#XUNITS      : eV
#YUNITS      : counts
#DATATYPE    : Y
#XPERCHAN    : 9.99778
#OFFSET      : 1.69135
#BEAMKV      : 20
#SIGNALTYPE  : EDS
#ELEVANGLE   : 35
#AZIMANGLE   : 0
#LIVETIME    : 239.606
#REALTIME    : 255.97
#PROBECUR    : 1.02867
#TAUWIND     : 0
#TDEADLYR    : 0
#TACTLYR     : 0.045
#TALWIND     : 0.025
#CHOFFSET    : 0.0
#XLABEL      : Energy (eV)
#YLABEL      : Counts
#XPOSITION   : 4.20765
#YPOSITION   : -0.19539
#ZPOSITION   : 31.03608
#EDSDET      : SD
##SPECIMEN   : SPI MM1dup Chromite[6][all]
##DET_HASH   : 12273538-fd48-a23f-0a19-f1e6fa85caef
##CALIB_HASH : 6abaa72c-aa41-8738-0be9-f592914732f3
##WORKING    : 15.0 mm
##DET_NAME   : EDAX All
##DET_MODE   : MediumLE
#SPECTRUM    :
12,
247,
9646,
10538,
83219,
7392,
2410,
2857,
3712,
58112,
7858,
27274,
3621,
3686,
3471,
3351,
3362,
3315,
3375,
3470,
3188,
3135,
3047,
2911,
2767,
2806,
2963,
2507,
2515,
2329,
2352,
2239,
2362,
2162,
2016,
2134,
2067,
2081,
21964,
58168,
1969,
1761,
7683,
5887,
1342,
5514,
14958,
1378,
1206,
1293,
2759,
1805,
979,
1170,
1044,
910,
890,
901,
830,
842,
790,
797,
757,
702,
672,
679,
651,
649,
649,
600,
573,
547,
550,
552,
511,
530,
484,
495,
465,
406,
397,
378,
382,
371,
350,
340,
344,
282,
304,
282,
248,
257,
234,
242,
234,
252,
184,
188,
155,
170,
192,
162,
156,
143,
124,
127,
104,
114,
117,
111,
98,
92,
100,
90,
70,
66,
63,
56,
69,
59,
57,
44,
41,
40,
31,
23,
29,
42,
25,
24,
28,
29,
17,
9,
10,
10,
13,
8,
9,
6,
6,
3,
0,
1,
1,
0,
1,
1,
1,
0,
0,
0,
0,
0,
0,
0,
0,
0,
0,
0,
0,
0,
0,
0,
0,
0,
0,
0,
1,
0,
0,
0,
0,
0,
0,
0,
0,
0,
0,
0,
0,
0,
0,
0,
0,
0,
0,
0,
0,
0,
0,
0,
0,
0,
0,
0,
0,
0,
0,
0,
0,
0,
0,
0,
0,
0,
0,
0,
0,
0,
0,
0,
0,
0,
0,
0,
0,
0,
0,
0,
0,
0,
0,
0,
0,
0,
0,
0,
0,
0,
0,
0,
0,
0,
0,
0,
0,
0,
0,
0,
0,
0,
0,
0,
0,
0,
0,
0,
0,
0,
0,
0,
0,
0,
0,
0,
0,
0,
0,
0,
0,
0,
0,
0,
0,
0,
0,
0,
0,
0,
0,
0,
0,
0,
0,
0,
0,
0,
0,
0,
0,
0,
0,
0,
0,
0,
0,
0,
0,
0,
0,
0,
0,
0,
#ENDOFDATA   :