File: N132962/Quantification/MMM1/SPI MM1 Chlorite[3][4].msa
#FORMAT      : EMSA/MAS Spectral Data File
#VERSION     : 1.0
#TITLE       : SPI MM1dup Chlorite[3][all]
#DATE        : 12-MAR-2025
#TIME        : 14:21
#OWNER       : Unknown
#NPOINTS     : 4096
#NCOLUMNS    : 1
#XUNITS      : eV
#YUNITS      : counts
#DATATYPE    : Y
#XPERCHAN    : 9.99778
#OFFSET      : 1.69135
#BEAMKV      : 20
#SIGNALTYPE  : EDS
#ELEVANGLE   : 35
#AZIMANGLE   : 0
#LIVETIME    : 239.872
#REALTIME    : 254.755
#PROBECUR    : 1.02867
#TAUWIND     : 0
#TDEADLYR    : 0
#TACTLYR     : 0.045
#TALWIND     : 0.025
#CHOFFSET    : 0.0
#XLABEL      : Energy (eV)
#YLABEL      : Counts
#XPOSITION   : 6.23627
#YPOSITION   : -0.24515
#ZPOSITION   : 31.03608
#EDSDET      : SD
##SPECIMEN   : SPI MM1dup Chlorite[3][all]
##DET_HASH   : 12273538-fd48-a23f-0a19-f1e6fa85caef
##CALIB_HASH : 6abaa72c-aa41-8738-0be9-f592914732f3
##WORKING    : 15.0 mm
##DET_NAME   : EDAX All
##DET_MODE   : MediumLE
#SPECTRUM    :
27,
200,
8715,
7480,
81360,
4249,
2765,
3196,
4562,
151624,
6406,
22320,
28359,
14332,
2237,
2198,
2494,
2188,
2386,
2145,
2135,
2187,
1909,
1983,
1852,
1870,
1781,
1569,
1580,
1514,
1425,
1425,
1419,
1334,
1335,
1285,
1228,
1142,
1836,
3191,
1020,
945,
1224,
1103,
868,
1902,
4278,
848,
751,
810,
1093,
945,
648,
807,
733,
601,
584,
572,
570,
541,
472,
470,
447,
427,
462,
447,
418,
398,
380,
359,
366,
356,
301,
292,
323,
314,
296,
267,
283,
257,
247,
270,
223,
215,
179,
209,
192,
201,
177,
169,
148,
168,
151,
134,
128,
119,
128,
122,
109,
89,
114,
92,
85,
67,
82,
66,
78,
66,
60,
54,
45,
40,
35,
47,
48,
30,
31,
43,
33,
29,
23,
23,
19,
16,
16,
21,
18,
9,
12,
12,
14,
12,
9,
5,
3,
11,
3,
9,
4,
3,
1,
2,
0,
0,
0,
0,
0,
0,
0,
0,
0,
0,
0,
0,
1,
0,
0,
0,
0,
0,
0,
0,
0,
0,
0,
0,
0,
0,
0,
0,
0,
0,
0,
0,
0,
0,
0,
0,
0,
0,
0,
0,
0,
0,
0,
0,
0,
0,
0,
0,
0,
0,
0,
0,
0,
0,
0,
0,
0,
0,
0,
0,
0,
0,
0,
0,
0,
0,
0,
0,
0,
0,
0,
0,
0,
0,
0,
0,
0,
0,
0,
0,
0,
0,
0,
0,
0,
0,
0,
0,
0,
0,
0,
0,
0,
0,
0,
0,
0,
0,
0,
0,
0,
0,
0,
0,
0,
0,
0,
0,
0,
0,
0,
0,
0,
0,
0,
0,
0,
0,
0,
0,
0,
0,
0,
0,
0,
0,
0,
0,
0,
0,
0,
0,
0,
0,
0,
0,
0,
0,
0,
0,
0,
0,
0,
0,
0,
0,
0,
0,
0,
0,
0,
0,
#ENDOFDATA   :