File: N132962/Quantification/MMM1/SPI MM1 Chromite[4][4].msa
#FORMAT      : EMSA/MAS Spectral Data File
#VERSION     : 1.0
#TITLE       : SPI MM1dup Chromite[4][all]
#DATE        : 12-MAR-2025
#TIME        : 14:13
#OWNER       : Unknown
#NPOINTS     : 4096
#NCOLUMNS    : 1
#XUNITS      : eV
#YUNITS      : counts
#DATATYPE    : Y
#XPERCHAN    : 9.99778
#OFFSET      : 1.69135
#BEAMKV      : 20
#SIGNALTYPE  : EDS
#ELEVANGLE   : 35
#AZIMANGLE   : 0
#LIVETIME    : 236.7548
#REALTIME    : 250.279
#PROBECUR    : 1.02867
#TAUWIND     : 0
#TDEADLYR    : 0
#TACTLYR     : 0.045
#TALWIND     : 0.025
#CHOFFSET    : 0.0
#XLABEL      : Energy (eV)
#YLABEL      : Counts
#XPOSITION   : 4.16182
#YPOSITION   : -0.27474
#ZPOSITION   : 31.03608
#EDSDET      : SD
##SPECIMEN   : SPI MM1dup Chromite[4][all]
##DET_HASH   : 12273538-fd48-a23f-0a19-f1e6fa85caef
##CALIB_HASH : 6abaa72c-aa41-8738-0be9-f592914732f3
##WORKING    : 15.0 mm
##DET_NAME   : EDAX All
##DET_MODE   : MediumLE
#SPECTRUM    :
32,
215,
8818,
8630,
63376,
9120,
2722,
2202,
2549,
30815,
4219,
11228,
4630,
3709,
2693,
2672,
2775,
2743,
2749,
2932,
2788,
2610,
2564,
2482,
2460,
2427,
2676,
2340,
2182,
2161,
2161,
2033,
2230,
2069,
1932,
2083,
1932,
2023,
21865,
57327,
1902,
1761,
8350,
5798,
1221,
6427,
18387,
1353,
1161,
1151,
3168,
1971,
885,
1250,
1066,
853,
845,
807,
810,
856,
721,
763,
690,
646,
702,
623,
590,
617,
598,
594,
544,
573,
542,
526,
467,
515,
467,
462,
444,
419,
383,
399,
382,
381,
384,
356,
358,
335,
316,
286,
302,
264,
243,
233,
214,
207,
200,
194,
197,
166,
164,
160,
167,
151,
124,
155,
117,
110,
105,
103,
120,
101,
90,
92,
75,
76,
67,
74,
63,
67,
46,
51,
44,
43,
32,
36,
39,
29,
25,
21,
28,
20,
19,
17,
13,
11,
13,
7,
10,
5,
3,
2,
1,
1,
1,
1,
0,
2,
0,
1,
0,
0,
0,
0,
0,
0,
0,
1,
0,
0,
0,
1,
0,
0,
0,
0,
0,
0,
0,
0,
0,
0,
0,
0,
0,
0,
0,
0,
0,
0,
0,
0,
0,
0,
0,
0,
0,
0,
0,
0,
0,
0,
0,
0,
0,
0,
0,
0,
0,
0,
0,
0,
0,
0,
0,
0,
0,
0,
0,
0,
0,
0,
0,
0,
0,
0,
0,
0,
0,
0,
0,
0,
0,
0,
0,
0,
0,
0,
0,
0,
0,
0,
0,
0,
0,
0,
0,
0,
0,
0,
0,
0,
0,
0,
0,
0,
0,
0,
0,
0,
0,
0,
0,
0,
0,
0,
0,
0,
0,
0,
0,
0,
0,
0,
0,
0,
0,
0,
0,
0,
0,
0,
0,
0,
0,
0,
0,
0,
0,
0,
0,
0,
0,
0,
0,
0,
0,
0,
0,
0,
0,
0,
0,
0,
#ENDOFDATA   :