File: N132962/Quantification/MMM1/SPI MM1 Cryolite[0][4].msa
#FORMAT      : EMSA/MAS Spectral Data File
#VERSION     : 1.0
#TITLE       : SPI MM1dup Cryolite[0][all]
#DATE        : 12-MAR-2025
#TIME        : 13:40
#OWNER       : Unknown
#NPOINTS     : 4096
#NCOLUMNS    : 1
#XUNITS      : eV
#YUNITS      : counts
#DATATYPE    : Y
#XPERCHAN    : 9.99778
#OFFSET      : 1.69135
#BEAMKV      : 20
#SIGNALTYPE  : EDS
#ELEVANGLE   : 35
#AZIMANGLE   : 0
#LIVETIME    : 239.944
#REALTIME    : 258.599
#PROBECUR    : 1.02627
#TAUWIND     : 0
#TDEADLYR    : 0
#TACTLYR     : 0.045
#TALWIND     : 0.025
#CHOFFSET    : 0.0
#XLABEL      : Energy (eV)
#YLABEL      : Counts
#XPOSITION   : -3.97776
#YPOSITION   : -0.57432
#ZPOSITION   : 31.03609
#EDSDET      : SD
##SPECIMEN   : SPI MM1dup Cryolite[0][all]
##D2STDCMP   : Cryolite,(F:54.2963),(Na:32.8517),(Al:12.8519)
##DET_HASH   : 12273538-fd48-a23f-0a19-f1e6fa85caef
##CALIB_HASH : 6abaa72c-aa41-8738-0be9-f592914732f3
##WORKING    : 15.0 mm
##DET_NAME   : EDAX All
##DET_MODE   : MediumLE
#SPECTRUM    :
25,
373,
9427,
4300,
13306,
338219,
2596,
39149,
9821,
2348,
7051,
26450,
3238,
2418,
2160,
2746,
2297,
2225,
2462,
2224,
2129,
2089,
2024,
1953,
1864,
1827,
1705,
1674,
1624,
1540,
1543,
1475,
1404,
1339,
1269,
1266,
1265,
1170,
1111,
1074,
1013,
1043,
951,
967,
930,
905,
932,
766,
748,
712,
736,
714,
689,
679,
625,
610,
582,
576,
531,
490,
504,
501,
451,
432,
447,
416,
396,
363,
371,
372,
344,
360,
348,
321,
318,
317,
287,
268,
253,
252,
219,
227,
240,
221,
228,
183,
175,
187,
181,
164,
153,
165,
151,
149,
122,
125,
107,
128,
127,
132,
100,
97,
86,
88,
75,
74,
83,
64,
61,
59,
69,
53,
43,
47,
40,
36,
43,
36,
38,
26,
22,
30,
30,
15,
20,
13,
21,
14,
19,
15,
12,
13,
7,
11,
10,
7,
3,
2,
2,
0,
2,
0,
1,
0,
0,
0,
0,
0,
1,
0,
0,
0,
1,
0,
0,
0,
0,
0,
0,
0,
0,
0,
0,
0,
0,
0,
0,
0,
0,
0,
0,
0,
0,
0,
0,
0,
0,
0,
0,
0,
0,
0,
0,
0,
0,
0,
0,
0,
0,
0,
0,
0,
0,
0,
0,
0,
0,
0,
0,
0,
0,
0,
0,
0,
0,
0,
0,
0,
0,
0,
0,
0,
0,
0,
0,
0,
0,
0,
0,
0,
0,
0,
0,
0,
0,
0,
0,
0,
0,
0,
0,
0,
0,
0,
0,
0,
0,
0,
0,
0,
0,
0,
0,
0,
0,
0,
0,
0,
0,
0,
0,
0,
0,
0,
0,
0,
0,
0,
0,
0,
0,
0,
0,
0,
0,
0,
0,
0,
0,
0,
0,
0,
0,
0,
0,
0,
0,
0,
0,
0,
0,
0,
0,
0,
0,
0,
0,
0,
0,
0,
0,
0,
0,
0,
#ENDOFDATA   :