File: N132962/Quantification/MMM1/SPI MM1 Chalcopyrite[1][4].msa
#FORMAT      : EMSA/MAS Spectral Data File
#VERSION     : 1.0
#TITLE       : SPI MM1 Chalcopyrite[1][all]
#DATE        : 11-MAR-2025
#TIME        : 14:28
#OWNER       : Unknown
#NPOINTS     : 4096
#NCOLUMNS    : 1
#XUNITS      : eV
#YUNITS      : counts
#DATATYPE    : Y
#XPERCHAN    : 9.99778
#OFFSET      : 1.69135
#BEAMKV      : 20
#SIGNALTYPE  : EDS
#ELEVANGLE   : 35
#AZIMANGLE   : 0
#LIVETIME    : 239.622
#REALTIME    : 258.226
#PROBECUR    : 1.02809
#TAUWIND     : 0
#TDEADLYR    : 0
#TACTLYR     : 0.045
#TALWIND     : 0.025
#CHOFFSET    : 0.0
#XLABEL      : Energy (eV)
#YLABEL      : Counts
#XPOSITION   : -4.90794
#YPOSITION   : -3.78586
#ZPOSITION   : 30.9284
#EDSDET      : SD
##SPECIMEN   : SPI MM1 Chalcopyrite[1][all]
##D2STDCMP   : Chalcopyrite,(S:34.9407),(Fe:30.4314),(Cu:34.6279),4.2
##DET_HASH   : 12273538-fd48-a23f-0a19-f1e6fa85caef
##CALIB_HASH : 6abaa72c-aa41-8738-0be9-f592914732f3
##WORKING    : 15.0 mm
##DET_NAME   : EDAX All
##DET_MODE   : MediumLE
#SPECTRUM    :
25,
399,
10293,
3197,
12418,
38565,
10551,
26105,
3252,
3658,
4168,
4462,
5049,
5175,
4706,
5072,
58013,
45400,
9778,
3327,
3215,
3304,
3287,
3547,
3072,
3213,
3112,
2979,
3032,
2963,
2866,
2830,
2707,
3030,
2748,
2537,
2488,
2419,
2398,
2322,
2298,
2192,
2100,
2133,
2223,
16347,
47097,
2330,
1947,
2033,
7216,
4403,
1530,
1547,
1438,
1349,
1728,
23146,
15493,
1400,
1238,
1202,
1332,
3296,
3980,
1040,
957,
905,
877,
901,
873,
830,
768,
779,
810,
741,
719,
675,
675,
668,
601,
601,
571,
561,
544,
527,
509,
534,
472,
490,
451,
435,
375,
377,
353,
359,
331,
358,
299,
286,
293,
252,
239,
267,
234,
215,
173,
192,
185,
173,
194,
153,
145,
148,
153,
125,
118,
112,
115,
95,
83,
99,
69,
80,
66,
66,
56,
58,
48,
44,
41,
39,
38,
35,
35,
24,
18,
15,
12,
4,
6,
4,
3,
2,
5,
0,
1,
0,
3,
0,
0,
0,
0,
0,
0,
1,
0,
1,
1,
2,
1,
0,
0,
0,
0,
0,
0,
0,
0,
0,
1,
0,
0,
0,
0,
0,
0,
0,
0,
0,
0,
0,
0,
0,
0,
0,
0,
0,
0,
0,
0,
0,
0,
0,
0,
0,
0,
0,
0,
0,
0,
1,
0,
0,
0,
0,
0,
0,
0,
0,
0,
0,
0,
0,
0,
0,
0,
0,
0,
0,
0,
0,
0,
0,
0,
0,
0,
0,
0,
0,
0,
0,
0,
0,
0,
0,
0,
0,
0,
0,
0,
0,
0,
0,
0,
0,
0,
0,
0,
0,
0,
0,
0,
0,
0,
0,
0,
0,
0,
0,
0,
0,
0,
0,
0,
0,
0,
0,
0,
0,
0,
0,
0,
0,
0,
0,
0,
0,
0,
0,
0,
0,
0,
0,
0,
0,
0,
0,
0,
0,
0,
0,
0,
0,
#ENDOFDATA   :