File: N132962/Standards/20 keV/Ag std.msa
#FORMAT      : EMSA/MAS Spectral Data File
#VERSION     : 1.0
#TITLE       : G588 Ag[2][all]+G588 Ag[3][all]+G588 Ag[4][all]
#NPOINTS     : 4096
#NCOLUMNS    : 1
#XUNITS      : eV
#YUNITS      : counts
#DATATYPE    : Y
#SIGNALTYPE  : EDS
#XLABEL      : Energy (eV)
#YLABEL      : Counts
#XPERCHAN -eV: 9.99778
#OFFSET   -eV: 1.69135
#CHOFFSET    : 0
#OWNER       : Unknown
#ELEVANGLE   : 35
#BEAMKV   -kV: 20
#LIVETIME  -s: 717.687
#REALTIME  -s: 793.972
#PROBECUR -nA: 0.83562
##WORKING -mm: 15
##D2STDCMP   : Ag,(Ag:100.0000),5.000
#SPECTRUM    :
76,
4377,
92949,
14865,
16939,
14975,
15777,
15729,
18770,
30566,
27699,
28518,
28967,
28439,
25235,
27790,
51972,
31279,
29179,
63325,
38125,
435730,
177359,
178967,
88098,
34550,
14396,
18915,
25605,
12922,
18434,
14112,
14146,
12522,
12822,
12336,
12341,
11808,
11716,
11663,
11502,
11095,
11201,
11594,
11270,
11169,
11598,
10246,
9848,
9640,
9555,
9410,
8973,
9254,
8856,
8442,
8236,
8109,
8179,
7782,
7379,
7222,
7028,
6982,
6785,
6421,
6281,
6104,
6124,
6049,
6076,
7316,
6228,
5271,
5096,
4973,
4827,
4723,
4525,
4480,
4351,
4264,
3961,
3872,
4164,
4288,
3693,
3299,
3292,
3075,
2949,
2860,
2714,
2673,
2553,
2403,
2278,
2296,
2234,
2194,
1958,
1844,
1786,
1795,
1581,
1584,
1518,
1478,
1264,
1313,
1267,
1139,
1161,
1079,
974,
921,
885,
894,
772,
707,
722,
659,
598,
558,
524,
488,
425,
481,
371,
372,
316,
287,
297,
236,
160,
195,
135,
125,
115,
82,
76,
42,
37,
20,
5,
6,
7,
13,
5,
6,
7,
11,
9,
4,
2,
2,
2,
7,
7,
3,
4,
4,
1,
3,
4,
7,
1,
3,
2,
4,
2,
4,
3,
2,
2,
1,
2,
3,
1,
2,
3,
2,
1,
1,
2,
1,
0,
1,
2,
2,
2,
1,
0,
0,
1,
0,
3,
2,
0,
0,
1,
0,
1,
0,
0,
0,
0,
0,
0,
1,
0,
0,
0,
0,
0,
0,
0,
1,
0,
1,
0,
0,
0,
0,
0,
0,
0,
0,
0,
0,
0,
0,
0,
1,
0,
0,
0,
0,
0,
0,
0,
0,
0,
0,
0,
0,
0,
0,
0,
0,
0,
0,
0,
0,
0,
0,
0,
0,
0,
0,
0,
0,
0,
0,
0,
0,
0,
0,
0,
0,
0,
0,
0,
0,
0,
0,
0,
0,
0,
0,
0,
0,
0,
0,
0,
0,
0,
0,
0,
0,
0,
0,
0,
0,
#ENDOFDATA   :