File: N132962/Standards/20 keV/Al std.msa
#FORMAT      : EMSA/MAS Spectral Data File
#VERSION     : 1.0
#TITLE       : Al std
#DATE        : 20-FEB-2025
#TIME        : 16:03
#OWNER       : Unknown
#NPOINTS     : 4096
#NCOLUMNS    : 1
#XUNITS      : eV
#YUNITS      : counts
#DATATYPE    : Y
#XPERCHAN    : 9.99778
#OFFSET      : 1.69135
#BEAMKV      : 20
#SIGNALTYPE  : EDS
#ELEVANGLE   : 35
#AZIMANGLE   : 0
#LIVETIME    : 719.233
#REALTIME    : 825.443
#PROBECUR    : 1.04971
#TAUWIND     : 0
#TDEADLYR    : 0
#TACTLYR     : 0.045
#TALWIND     : 0.025
#CHOFFSET    : 0.0
#XLABEL      : Energy (eV)
#YLABEL      : Counts
#EDSDET      : SD
##SPECIMEN   : Al std
##D2STDCMP   : Al,(Al:100.0),5.0
##DET_HASH   : 12273538-fd48-a23f-0a19-f1e6fa85caef
##CALIB_HASH : 6abaa72c-aa41-8738-0be9-f592914732f3
##WORKING    : 15.0 mm
##SAMPLE     : <BulkSample id="1">\n<mOrientation id="2">\n<double>0.0</double>\n<double>0.0</double>\n<double>-1.0</double>\n</mOrientation>\n</BulkSample>
##MULTISPEC  : 1.83723
##DET_NAME   : EDAX All
##DET_MODE   : MediumLE
#SPECTRUM    :
75,
622,
10616,
8715,
22428,
19268,
21345,
24121,
26836,
36470,
276723,
1258712,
6471,
6092,
6287,
6348,
6925,
6987,
7237,
7401,
7695,
32187,
9344,
6520,
6306,
6327,
6294,
6056,
5881,
5776,
5624,
5576,
5383,
5021,
5020,
4932,
4586,
4586,
4411,
4312,
4048,
3938,
3884,
3602,
3566,
3539,
3680,
3318,
3128,
3067,
2924,
2778,
2732,
2808,
2651,
2568,
2410,
2405,
2262,
2211,
2065,
1980,
2044,
1988,
1898,
1711,
1746,
1691,
1661,
1544,
1508,
1432,
1396,
1329,
1299,
1293,
1216,
1158,
1178,
1121,
1067,
1017,
980,
913,
876,
811,
826,
778,
778,
744,
643,
653,
605,
537,
559,
566,
532,
518,
432,
430,
417,
378,
383,
364,
338,
365,
297,
302,
290,
251,
244,
239,
233,
206,
212,
171,
163,
139,
150,
128,
112,
114,
105,
86,
81,
80,
68,
70,
61,
56,
56,
56,
32,
43,
31,
29,
24,
18,
18,
11,
3,
9,
4,
1,
0,
1,
2,
0,
1,
0,
0,
0,
0,
0,
2,
0,
1,
0,
0,
0,
0,
0,
0,
0,
0,
0,
0,
0,
0,
1,
0,
0,
0,
0,
0,
0,
0,
0,
0,
0,
0,
0,
0,
0,
2,
0,
0,
1,
0,
0,
0,
0,
0,
0,
0,
0,
0,
0,
0,
0,
0,
0,
0,
0,
0,
0,
0,
0,
0,
0,
0,
0,
0,
0,
0,
0,
0,
0,
0,
0,
0,
0,
0,
0,
0,
0,
0,
0,
0,
0,
0,
0,
0,
0,
0,
0,
0,
0,
0,
0,
0,
0,
0,
0,
0,
0,
0,
0,
0,
0,
0,
0,
0,
0,
0,
0,
0,
0,
0,
0,
0,
0,
0,
0,
0,
0,
0,
0,
0,
0,
0,
0,
0,
0,
0,
0,
0,
0,
0,
0,
0,
0,
0,
0,
0,
0,
0,
0,
0,
0,
0,
0,
0,
0,
#ENDOFDATA   :