File: N132962/Standards/20 keV/Al2O3 std.msa
#FORMAT      : EMSA/MAS Spectral Data File
#VERSION     : 1.0
#TITLE       : Al2O3 std
#DATE        : 12-SEP-2025
#TIME        : 09:28
#OWNER       : Unknown
#NPOINTS     : 4096
#NCOLUMNS    : 1
#XUNITS      : eV
#YUNITS      : counts
#DATATYPE    : Y
#XPERCHAN    : 9.99778
#OFFSET      : 1.69135
#BEAMKV      : 20
#SIGNALTYPE  : EDS
#ELEVANGLE   : 35
#AZIMANGLE   : 0
#LIVETIME    : 1200.97
#REALTIME    : 1317.01
#PROBECUR    : 1.23853
#TAUWIND     : 0
#TDEADLYR    : 0
#TACTLYR     : 0.045
#TALWIND     : 0.025
#CHOFFSET    : 0.0
#XLABEL      : Energy (eV)
#YLABEL      : Counts
#EDSDET      : SD
##SPECIMEN   : Al2O3 std
##D2STDCMP   : Al2O3,(O:47.0749),(Al:52.9251),4.0
##DET_HASH   : 12273538-fd48-a23f-0a19-f1e6fa85caef
##CALIB_HASH : 6abaa72c-aa41-8738-0be9-f592914732f3
##WORKING    : 15.0 mm
##SAMPLE     : <BulkSample id="1">\n<mOrientation id="2">\n<double>0.0</double>\n<double>0.0</double>\n<double>-1.0</double>\n</mOrientation>\n</BulkSample>
##MULTISPEC  : 1.24231
##DET_NAME   : EDAX All
##DET_MODE   : MediumLE
#SPECTRUM    :
174,
1216,
24108,
46643,
445568,
13615,
16290,
20691,
24401,
33567,
226699,
1032573,
12340,
13002,
19051,
13076,
12821,
12928,
13041,
13230,
12777,
21549,
13228,
11870,
11140,
11183,
10872,
10441,
10142,
9704,
9391,
9047,
8717,
8615,
8069,
7847,
7651,
7279,
7097,
6866,
6462,
6265,
6074,
5869,
5596,
5783,
6096,
5164,
4966,
4746,
4783,
4369,
4429,
4325,
4044,
3918,
3715,
3612,
3501,
3437,
3350,
3132,
3116,
2885,
2833,
2683,
2682,
2540,
2422,
2337,
2358,
2215,
2157,
2093,
1982,
1870,
1853,
1775,
1692,
1664,
1602,
1552,
1397,
1360,
1340,
1223,
1235,
1188,
1136,
1032,
1037,
1033,
950,
857,
775,
816,
793,
696,
677,
653,
611,
560,
555,
544,
503,
483,
429,
430,
412,
347,
338,
350,
302,
300,
266,
250,
242,
255,
210,
184,
180,
148,
181,
155,
118,
110,
124,
103,
94,
93,
75,
71,
56,
50,
47,
32,
33,
19,
26,
19,
9,
7,
5,
1,
0,
3,
0,
0,
1,
0,
1,
0,
0,
0,
0,
0,
1,
1,
0,
0,
0,
0,
0,
0,
1,
0,
0,
0,
0,
1,
0,
0,
0,
0,
0,
0,
0,
0,
0,
0,
0,
1,
0,
1,
0,
0,
0,
0,
0,
0,
1,
0,
0,
0,
0,
0,
0,
0,
0,
0,
0,
0,
0,
0,
0,
0,
0,
0,
0,
0,
0,
0,
0,
1,
0,
0,
0,
0,
0,
0,
0,
0,
0,
0,
0,
0,
0,
0,
0,
0,
0,
0,
0,
0,
0,
0,
0,
0,
0,
0,
0,
0,
0,
0,
0,
0,
0,
0,
0,
0,
0,
0,
0,
0,
0,
0,
0,
0,
0,
0,
0,
0,
0,
0,
0,
0,
0,
0,
0,
0,
0,
0,
0,
0,
0,
0,
0,
0,
0,
0,
0,
0,
0,
0,
0,
0,
0,
0,
0,
0,
0,
0,
0,
0,
#ENDOFDATA   :