File: N132962/Standards/20 keV/Albite std.msa
#FORMAT      : EMSA/MAS Spectral Data File
#VERSION     : 1.0
#TITLE       : Albite std
#DATE        : 24-FEB-2025
#TIME        : 09:51
#OWNER       : Unknown
#NPOINTS     : 4096
#NCOLUMNS    : 1
#XUNITS      : eV
#YUNITS      : counts
#DATATYPE    : Y
#XPERCHAN    : 9.99778
#OFFSET      : 1.69135
#BEAMKV      : 20
#SIGNALTYPE  : EDS
#ELEVANGLE   : 35
#AZIMANGLE   : 0
#LIVETIME    : 719.633
#REALTIME    : 768.693
#PROBECUR    : 1.03053
#TAUWIND     : 0
#TDEADLYR    : 0
#TACTLYR     : 0.045
#TALWIND     : 0.025
#CHOFFSET    : 0.0
#XLABEL      : Energy (eV)
#YLABEL      : Counts
#EDSDET      : SD
##SPECIMEN   : Albite std
##D2STDCMP   : Albite,(O:48.8112),(Na:8.7674),(Al:10.2897),(Si:32.1316)
##DET_HASH   : 12273538-fd48-a23f-0a19-f1e6fa85caef
##CALIB_HASH : 6abaa72c-aa41-8738-0be9-f592914732f3
##WORKING    : 15.0 mm
##SAMPLE     : <BulkSample id="1">\n<mOrientation id="2">\n<double>0.0</double>\n<double>0.0</double>\n<double>-1.0</double>\n</mOrientation>\n</BulkSample>
##MULTISPEC  : 1.43837
##DET_NAME   : EDAX All
##DET_MODE   : MediumLE
#SPECTRUM    :
113,
641,
13140,
20963,
214486,
6048,
8543,
44275,
17607,
11310,
29035,
100652,
224656,
106457,
6520,
6289,
8301,
6487,
6454,
6459,
6596,
6404,
5980,
6808,
6827,
6478,
5431,
5106,
5016,
4614,
4530,
4527,
4262,
4147,
4020,
3918,
3787,
3657,
3601,
3326,
3211,
3201,
3015,
3033,
2728,
2693,
2821,
2641,
2388,
2313,
2301,
2253,
2135,
2106,
2054,
1929,
1921,
1879,
1815,
1684,
1624,
1614,
1612,
1443,
1409,
1407,
1353,
1289,
1191,
1170,
1149,
1143,
1030,
1025,
940,
972,
955,
882,
833,
798,
780,
763,
665,
711,
641,
644,
606,
594,
556,
555,
508,
477,
498,
442,
400,
413,
377,
370,
341,
310,
298,
299,
263,
243,
231,
238,
194,
194,
195,
184,
182,
164,
141,
141,
128,
117,
120,
126,
94,
108,
96,
79,
63,
80,
70,
45,
57,
43,
39,
44,
40,
33,
31,
19,
28,
18,
12,
11,
12,
8,
4,
2,
1,
1,
1,
0,
0,
0,
0,
0,
1,
1,
1,
0,
0,
0,
0,
0,
0,
0,
0,
0,
0,
1,
0,
0,
0,
0,
0,
0,
0,
0,
0,
0,
0,
0,
0,
0,
0,
0,
1,
0,
0,
0,
0,
0,
0,
0,
0,
0,
0,
0,
0,
0,
0,
0,
0,
0,
0,
0,
0,
0,
0,
0,
0,
0,
0,
0,
0,
0,
0,
0,
0,
0,
0,
0,
0,
0,
0,
0,
0,
0,
0,
0,
0,
0,
0,
0,
0,
0,
0,
0,
0,
0,
0,
0,
0,
0,
0,
0,
0,
0,
0,
0,
0,
0,
0,
0,
0,
0,
0,
0,
0,
0,
0,
0,
0,
0,
0,
0,
0,
0,
0,
0,
0,
0,
0,
0,
0,
0,
0,
0,
0,
0,
0,
0,
0,
0,
0,
0,
0,
0,
0,
0,
0,
0,
0,
0,
0,
0,
0,
0,
0,
0,
#ENDOFDATA   :