File: N132962/Standards/20 keV/AlN std.msa
#FORMAT      : EMSA/MAS Spectral Data File
#VERSION     : 1.0
#TITLE       : AlN std
#DATE        : 24-FEB-2025
#TIME        : 09:57
#OWNER       : Unknown
#NPOINTS     : 4096
#NCOLUMNS    : 1
#XUNITS      : eV
#YUNITS      : counts
#DATATYPE    : Y
#XPERCHAN    : 9.99778
#OFFSET      : 1.69135
#BEAMKV      : 20
#SIGNALTYPE  : EDS
#ELEVANGLE   : 35
#AZIMANGLE   : 0
#LIVETIME    : 959.449
#REALTIME    : 1045.87
#PROBECUR    : 1.03053
#TAUWIND     : 0
#TDEADLYR    : 0
#TACTLYR     : 0.045
#TALWIND     : 0.025
#CHOFFSET    : 0.0
#XLABEL      : Energy (eV)
#YLABEL      : Counts
#EDSDET      : SD
##SPECIMEN   : AlN std
##D2STDCMP   : AlN,(N:34.173),(Al:65.827)
##DET_HASH   : 12273538-fd48-a23f-0a19-f1e6fa85caef
##CALIB_HASH : 6abaa72c-aa41-8738-0be9-f592914732f3
##WORKING    : 15.0 mm
##SAMPLE     : <BulkSample id="1">\n<mOrientation id="2">\n<double>0.0</double>\n<double>0.0</double>\n<double>-1.0</double>\n</mOrientation>\n</BulkSample>
##MULTISPEC  : 6.15043
##DET_NAME   : EDAX All
##DET_MODE   : MediumLE
#SPECTRUM    :
195,
854,
19478,
93253,
9246,
12086,
16370,
20514,
22655,
30464,
221552,
1001762,
7923,
9453,
7901,
8109,
8330,
8684,
8703,
8655,
8553,
18867,
9298,
7771,
7552,
7318,
7173,
6863,
6806,
6489,
6097,
6045,
5806,
5660,
5492,
5327,
5144,
4984,
4656,
4641,
4435,
4357,
4178,
4129,
3912,
3823,
3861,
3505,
3366,
3354,
3178,
3000,
2810,
2953,
2782,
2625,
2545,
2528,
2459,
2309,
2299,
2182,
2163,
2031,
1922,
1832,
1771,
1806,
1711,
1672,
1561,
1492,
1446,
1389,
1375,
1378,
1276,
1181,
1093,
1148,
1076,
1086,
993,
911,
956,
853,
847,
784,
728,
710,
707,
672,
578,
614,
544,
520,
550,
499,
423,
457,
396,
364,
391,
382,
312,
311,
389,
360,
277,
258,
249,
211,
221,
209,
186,
166,
178,
175,
141,
149,
123,
108,
100,
104,
63,
61,
75,
73,
64,
80,
50,
40,
38,
39,
21,
27,
16,
23,
14,
12,
10,
4,
1,
1,
1,
0,
1,
2,
0,
1,
0,
1,
0,
1,
0,
0,
0,
0,
0,
0,
1,
1,
0,
0,
0,
0,
0,
2,
0,
0,
0,
0,
0,
0,
0,
0,
0,
0,
0,
0,
0,
0,
0,
0,
0,
0,
0,
0,
0,
0,
0,
0,
0,
0,
0,
0,
0,
0,
0,
0,
0,
0,
0,
0,
0,
0,
0,
0,
0,
0,
0,
0,
0,
0,
0,
0,
0,
0,
0,
0,
0,
0,
0,
0,
0,
0,
0,
0,
0,
0,
0,
0,
0,
0,
0,
0,
0,
0,
0,
0,
0,
0,
0,
0,
0,
0,
0,
0,
0,
0,
0,
0,
0,
0,
0,
0,
0,
0,
0,
0,
0,
0,
0,
0,
0,
0,
0,
0,
0,
0,
0,
0,
0,
0,
0,
0,
0,
0,
0,
0,
0,
0,
0,
1,
0,
0,
0,
0,
0,
0,
0,
0,
0,
0,
#ENDOFDATA   :