File: N132962/Standards/20 keV/Au std.msa
#FORMAT      : EMSA/MAS Spectral Data File
#VERSION     : 1.0
#TITLE       : G588 Au[0][all]+G588 Au[1][all]+G588 Au[2][all]+G588 Au[3][all]+G588 Au[4][all]
#NPOINTS     : 4096
#NCOLUMNS    : 1
#XUNITS      : eV
#YUNITS      : counts
#DATATYPE    : Y
#SIGNALTYPE  : EDS
#XLABEL      : Energy (eV)
#YLABEL      : Counts
#XPERCHAN -eV: 9.99778
#OFFSET   -eV: 1.69135
#CHOFFSET    : 0
#OWNER       : Unknown
#ELEVANGLE   : 35
#BEAMKV   -kV: 20
#LIVETIME  -s: 1200.21
#REALTIME  -s: 1361.35
#PROBECUR -nA: 1.0449
##WORKING -mm: 15
##D2STDCMP   : Au,(Au:100.0000),5.000
#SPECTRUM    :
130,
6487,
61038,
47043,
35656,
41216,
45637,
48765,
54132,
58870,
63113,
71404,
145478,
71700,
89087,
1257919,
620585,
66629,
31526,
33987,
41454,
30349,
30455,
29786,
30800,
29852,
30569,
31083,
31506,
31062,
33027,
33919,
31302,
30841,
30376,
30509,
30051,
29514,
29445,
29510,
28475,
28307,
28068,
27049,
26859,
27891,
29550,
25511,
24999,
24548,
24448,
23770,
23008,
24075,
22684,
21775,
21270,
21141,
20508,
20335,
22459,
25002,
18666,
18092,
17813,
17453,
17110,
16713,
26156,
137425,
74076,
16660,
14894,
14665,
14504,
13452,
13203,
12659,
12492,
13505,
16283,
29303,
53602,
37509,
13386,
12657,
9721,
8632,
8246,
8011,
7780,
7545,
7273,
7196,
6953,
10743,
10372,
6820,
7506,
6188,
5459,
5165,
5058,
4764,
4417,
4193,
4103,
3965,
3725,
3733,
3435,
3418,
3278,
2947,
2890,
2717,
2553,
2405,
2227,
2189,
2081,
1887,
1858,
1647,
1679,
1542,
1464,
1312,
1204,
1156,
1105,
1003,
874,
832,
754,
670,
607,
555,
417,
408,
277,
207,
138,
75,
54,
52,
48,
44,
37,
44,
40,
45,
48,
26,
34,
25,
30,
30,
17,
14,
18,
27,
11,
24,
21,
23,
19,
16,
17,
19,
21,
17,
11,
18,
13,
11,
25,
16,
15,
12,
11,
6,
10,
10,
12,
5,
11,
12,
6,
4,
5,
7,
5,
9,
7,
4,
8,
5,
7,
3,
3,
2,
1,
4,
3,
3,
2,
4,
1,
0,
3,
3,
2,
1,
3,
0,
0,
2,
4,
2,
2,
3,
0,
3,
0,
1,
0,
0,
0,
1,
0,
0,
1,
0,
0,
1,
0,
0,
0,
0,
0,
0,
0,
1,
0,
0,
0,
0,
0,
1,
0,
1,
0,
0,
0,
0,
0,
0,
0,
0,
1,
0,
0,
0,
1,
0,
0,
0,
0,
0,
0,
0,
0,
0,
0,
0,
0,
0,
0,
0,
0,
0,
0,
0,
0,
0,
0,
0,
0,
0,
0,
0,
0,
0,
#ENDOFDATA   :