File: N132962/Standards/20 keV/B std.msa
#FORMAT      : EMSA/MAS Spectral Data File
#VERSION     : 1.0
#TITLE       : B std
#DATE        : 19-MAR-2025
#TIME        : 22:46
#OWNER       : Unknown
#NPOINTS     : 4096
#NCOLUMNS    : 1
#XUNITS      : eV
#YUNITS      : counts
#DATATYPE    : Y
#XPERCHAN    : 9.99778
#OFFSET      : 1.69135
#BEAMKV      : 20
#SIGNALTYPE  : EDS
#ELEVANGLE   : 35
#AZIMANGLE   : 0
#LIVETIME    : 1439.24
#REALTIME    : 1458.66
#PROBECUR    : 1.03438
#TAUWIND     : 0
#TDEADLYR    : 0
#TACTLYR     : 0.045
#TALWIND     : 0.025
#CHOFFSET    : 0.0
#XLABEL      : Energy (eV)
#YLABEL      : Counts
#EDSDET      : SD
##SPECIMEN   : B std
##D2STDCMP   : B,(B:100.0),5.0
##DET_HASH   : 12273538-fd48-a23f-0a19-f1e6fa85caef
##CALIB_HASH : 6abaa72c-aa41-8738-0be9-f592914732f3
##WORKING    : 15.0 mm
##SAMPLE     : <BulkSample id="1">\n<mOrientation id="2">\n<double>0.0</double>\n<double>0.0</double>\n<double>-1.0</double>\n</mOrientation>\n</BulkSample>
##MULTISPEC  : 0.872488
##DET_NAME   : EDAX All
##DET_MODE   : MediumLE
#SPECTRUM    :
151,
168756,
13356,
3198,
6253,
8792,
12118,
14792,
15375,
15738,
15767,
14943,
15683,
13747,
10564,
9821,
9055,
8566,
7916,
7368,
6966,
6723,
6072,
5700,
5382,
5117,
4942,
4642,
4402,
4151,
3975,
3781,
3607,
3360,
3365,
3117,
2976,
2804,
2794,
2630,
2478,
2364,
2448,
2174,
2098,
2148,
2287,
1834,
1763,
1730,
1671,
1674,
1541,
1530,
1413,
1302,
1259,
1644,
1438,
1192,
1095,
1191,
1265,
1070,
996,
906,
912,
870,
894,
810,
673,
801,
735,
677,
657,
607,
617,
541,
502,
502,
469,
482,
439,
417,
442,
361,
393,
384,
349,
333,
325,
240,
244,
242,
264,
231,
233,
208,
177,
208,
155,
165,
142,
168,
140,
123,
106,
113,
100,
96,
88,
102,
81,
72,
79,
67,
71,
55,
61,
53,
48,
43,
43,
34,
31,
28,
31,
32,
22,
22,
22,
19,
19,
10,
16,
13,
7,
7,
4,
4,
5,
2,
0,
0,
0,
0,
0,
0,
0,
0,
0,
0,
0,
0,
0,
0,
0,
0,
0,
0,
0,
0,
0,
0,
0,
0,
0,
0,
0,
0,
1,
0,
0,
0,
0,
0,
0,
0,
0,
0,
0,
0,
0,
0,
0,
0,
0,
1,
0,
0,
0,
0,
0,
0,
0,
0,
0,
0,
0,
0,
0,
0,
0,
0,
0,
0,
0,
0,
0,
0,
0,
0,
0,
0,
0,
0,
0,
0,
0,
0,
0,
0,
0,
0,
0,
0,
0,
0,
0,
0,
0,
0,
0,
0,
0,
0,
0,
0,
0,
0,
0,
0,
0,
0,
0,
0,
0,
0,
0,
0,
0,
0,
0,
0,
0,
0,
0,
0,
0,
0,
0,
0,
0,
0,
0,
0,
0,
0,
0,
0,
0,
0,
0,
0,
0,
0,
0,
0,
0,
0,
0,
0,
0,
0,
0,
0,
0,
0,
0,
0,
0,
0,
0,
0,
#ENDOFDATA   :