File: N132962/Standards/20 keV/BaCl std.msa
#FORMAT      : EMSA/MAS Spectral Data File
#VERSION     : 1.0
#TITLE       : BaCl std
#DATE        : 15-SEP-2025
#TIME        : 14:17
#OWNER       : Unknown
#NPOINTS     : 4096
#NCOLUMNS    : 1
#XUNITS      : eV
#YUNITS      : counts
#DATATYPE    : Y
#XPERCHAN    : 9.99778
#OFFSET      : 1.69135
#BEAMKV      : 20
#SIGNALTYPE  : EDS
#ELEVANGLE   : 35
#AZIMANGLE   : 0
#LIVETIME    : 1202.71
#REALTIME    : 1331.1
#PROBECUR    : 1.23578
#TAUWIND     : 0
#TDEADLYR    : 0
#TACTLYR     : 0.045
#TALWIND     : 0.025
#CHOFFSET    : 0.0
#XLABEL      : Energy (eV)
#YLABEL      : Counts
#EDSDET      : SD
##SPECIMEN   : BaCl std
##D2STDCMP   : BaCl,(Cl:20.5178),(Ba:79.4822)
##DET_HASH   : 12273538-fd48-a23f-0a19-f1e6fa85caef
##CALIB_HASH : 6abaa72c-aa41-8738-0be9-f592914732f3
##WORKING    : 15.0 mm
##SAMPLE     : <BulkSample id="1">\n<mOrientation id="2">\n<double>0.0</double>\n<double>0.0</double>\n<double>-1.0</double>\n</mOrientation>\n</BulkSample>
##MULTISPEC  : 184.193
##DET_NAME   : EDAX All
##DET_MODE   : MediumLE
#SPECTRUM    :
623,
32804,
35219,
24712,
99863,
48802,
48547,
39988,
28821,
27671,
29885,
33021,
35140,
38142,
33715,
34654,
36251,
36782,
128231,
788445,
127890,
29567,
28439,
27399,
26966,
26757,
26477,
26506,
40259,
28949,
26529,
62204,
512576,
33967,
125009,
168791,
41223,
102840,
21957,
32819,
33404,
24905,
22033,
17200,
15112,
15379,
16229,
14561,
14320,
14107,
14526,
14627,
13453,
14378,
13427,
12834,
12526,
12221,
12013,
11757,
11435,
11164,
11037,
10710,
10686,
9963,
10272,
9779,
9399,
9340,
9191,
9002,
8551,
8320,
8029,
7783,
7734,
7362,
7143,
6977,
6650,
6343,
6297,
6087,
5754,
5651,
5490,
5213,
5137,
4988,
4769,
4553,
4446,
4215,
3941,
3894,
3672,
3556,
3363,
3245,
3173,
2937,
2996,
2684,
2663,
2567,
2374,
2238,
2201,
1980,
1891,
1790,
1730,
1656,
1522,
1457,
1374,
1317,
1209,
1154,
1034,
1022,
972,
889,
863,
774,
708,
658,
607,
563,
497,
446,
411,
385,
338,
286,
279,
224,
179,
160,
125,
77,
34,
24,
16,
11,
14,
18,
16,
12,
11,
12,
11,
8,
14,
6,
12,
3,
5,
11,
10,
8,
1,
4,
5,
5,
7,
4,
5,
9,
2,
4,
4,
1,
1,
3,
4,
2,
1,
2,
1,
1,
0,
1,
2,
3,
2,
3,
4,
1,
4,
3,
3,
1,
1,
2,
3,
3,
0,
1,
1,
0,
0,
0,
0,
0,
0,
1,
0,
0,
0,
0,
1,
0,
1,
0,
0,
0,
0,
0,
0,
0,
1,
0,
0,
0,
0,
1,
1,
0,
0,
0,
0,
1,
0,
0,
0,
0,
0,
0,
0,
0,
0,
0,
0,
0,
0,
0,
0,
0,
0,
0,
0,
0,
0,
0,
0,
0,
0,
0,
0,
0,
1,
0,
0,
0,
0,
0,
0,
0,
0,
0,
0,
0,
0,
0,
0,
0,
0,
0,
0,
0,
0,
0,
0,
0,
0,
0,
0,
0,
0,
0,
0,
0,
#ENDOFDATA   :