File: N132962/Standards/20 keV/BaF2 std.msa
#FORMAT      : EMSA/MAS Spectral Data File
#VERSION     : 1.0
#TITLE       : BaF2 std
#DATE        : 20-FEB-2025
#TIME        : 14:09
#OWNER       : Unknown
#NPOINTS     : 4096
#NCOLUMNS    : 1
#XUNITS      : eV
#YUNITS      : counts
#DATATYPE    : Y
#XPERCHAN    : 9.99778
#OFFSET      : 1.69135
#BEAMKV      : 20
#SIGNALTYPE  : EDS
#ELEVANGLE   : 35
#AZIMANGLE   : 0
#LIVETIME    : 956.824
#REALTIME    : 1049.65
#PROBECUR    : 1.04758
#TAUWIND     : 0
#TDEADLYR    : 0
#TACTLYR     : 0.045
#TALWIND     : 0.025
#CHOFFSET    : 0.0
#XLABEL      : Energy (eV)
#YLABEL      : Counts
#EDSDET      : SD
##SPECIMEN   : BaF2 std
##D2STDCMP   : BaF2,(F:21.672),(Ba:78.328),5.0
##DET_HASH   : 12273538-fd48-a23f-0a19-f1e6fa85caef
##CALIB_HASH : 6abaa72c-aa41-8738-0be9-f592914732f3
##WORKING    : 15.0 mm
##SAMPLE     : <BulkSample id="1">\n<mOrientation id="2">\n<double>0.0</double>\n<double>0.0</double>\n<double>-1.0</double>\n</mOrientation>\n</BulkSample>
##MULTISPEC  : 8.67636
##DET_NAME   : EDAX All
##DET_MODE   : MediumLE
#SPECTRUM    :
899,
6603,
61243,
34864,
147127,
513969,
25548,
25274,
17679,
18293,
19666,
21338,
23967,
26502,
23109,
23693,
24369,
24668,
25296,
27180,
25609,
24408,
25607,
23852,
23799,
22973,
22504,
22214,
34777,
23923,
21531,
54072,
455677,
28051,
107884,
148727,
34034,
87366,
16973,
27028,
27144,
19700,
17138,
13289,
11458,
12062,
13489,
10762,
10780,
10493,
10525,
10109,
10062,
10334,
9823,
9517,
8976,
8978,
8924,
8731,
8420,
8119,
7912,
7877,
7852,
7219,
7292,
7165,
6849,
7069,
6470,
6312,
6235,
6032,
5861,
5713,
5513,
5499,
5136,
5058,
4769,
4618,
4546,
4356,
4282,
4101,
3931,
3733,
3578,
3414,
3413,
3227,
3009,
2977,
2770,
2678,
2577,
2459,
2420,
2236,
2175,
2106,
2014,
1872,
1793,
1798,
1618,
1541,
1473,
1391,
1312,
1233,
1127,
1055,
1038,
1007,
938,
844,
811,
700,
725,
671,
628,
581,
521,
495,
458,
421,
381,
355,
320,
241,
228,
172,
166,
145,
134,
100,
70,
44,
23,
11,
8,
9,
10,
17,
11,
6,
10,
9,
8,
13,
8,
6,
7,
1,
4,
1,
4,
4,
2,
9,
6,
2,
3,
6,
0,
1,
3,
1,
3,
1,
1,
1,
3,
4,
0,
1,
3,
1,
5,
1,
1,
2,
0,
4,
0,
0,
2,
1,
1,
4,
1,
0,
3,
0,
1,
0,
0,
0,
1,
0,
1,
0,
1,
0,
0,
1,
0,
0,
1,
1,
1,
0,
1,
0,
2,
0,
0,
1,
0,
0,
0,
0,
0,
1,
0,
0,
0,
0,
0,
0,
0,
0,
0,
0,
0,
0,
0,
0,
1,
0,
0,
0,
0,
0,
0,
0,
0,
0,
0,
0,
0,
0,
0,
0,
0,
0,
0,
0,
0,
0,
0,
0,
0,
0,
0,
0,
0,
0,
0,
0,
0,
0,
0,
0,
0,
0,
0,
0,
0,
0,
0,
0,
0,
0,
0,
0,
0,
0,
0,
0,
0,
0,
#ENDOFDATA   :