File: N132962/Standards/20 keV/Bi std.msa
#FORMAT      : EMSA/MAS Spectral Data File
#VERSION     : 1.0
#TITLE       : Bi std
#DATE        : 20-FEB-2025
#TIME        : 14:03
#OWNER       : Unknown
#NPOINTS     : 4096
#NCOLUMNS    : 1
#XUNITS      : eV
#YUNITS      : counts
#DATATYPE    : Y
#XPERCHAN    : 9.99778
#OFFSET      : 1.69135
#BEAMKV      : 20
#SIGNALTYPE  : EDS
#ELEVANGLE   : 35
#AZIMANGLE   : 0
#LIVETIME    : 964.528
#REALTIME    : 1088.75
#PROBECUR    : 1.04741
#TAUWIND     : 0
#TDEADLYR    : 0
#TACTLYR     : 0.045
#TALWIND     : 0.025
#CHOFFSET    : 0.0
#XLABEL      : Energy (eV)
#YLABEL      : Counts
#EDSDET      : SD
##SPECIMEN   : Bi std
##D2STDCMP   : Bi,(Bi:100.0)
##DET_HASH   : 12273538-fd48-a23f-0a19-f1e6fa85caef
##CALIB_HASH : 6abaa72c-aa41-8738-0be9-f592914732f3
##WORKING    : 15.0 mm
##SAMPLE     : <BulkSample id="1">\n<mOrientation id="2">\n<double>0.0</double>\n<double>0.0</double>\n<double>-1.0</double>\n</mOrientation>\n</BulkSample>
##MULTISPEC  : 1.22291
##DET_NAME   : EDAX All
##DET_MODE   : MediumLE
#SPECTRUM    :
113,
10817,
68469,
24967,
31624,
51663,
37926,
36347,
39315,
42819,
46238,
48595,
50902,
67145,
61542,
48063,
65668,
613023,
708732,
49313,
39008,
24922,
27618,
34886,
24746,
24215,
25147,
23940,
24977,
23694,
23982,
24178,
24112,
23697,
24064,
25672,
24780,
23244,
23567,
24464,
22520,
22258,
22206,
21708,
20883,
22753,
27306,
19989,
19947,
19398,
19904,
19108,
18121,
19394,
18111,
17144,
16746,
16494,
16316,
15835,
15255,
15089,
14845,
14386,
14000,
13635,
13861,
16512,
14241,
12702,
12276,
11869,
11553,
11376,
11115,
11126,
16586,
63809,
40484,
10533,
9355,
9086,
8478,
8666,
8493,
7968,
7694,
7459,
7196,
7580,
7433,
7392,
15349,
26690,
9536,
7028,
6349,
4998,
4700,
4551,
4324,
4105,
3998,
3904,
3782,
3520,
3414,
3328,
3965,
4841,
3220,
3047,
3009,
2532,
2317,
2161,
2089,
2007,
1821,
1767,
1683,
1596,
1515,
1396,
1413,
1352,
1190,
1149,
954,
957,
898,
795,
717,
675,
638,
559,
487,
412,
340,
301,
208,
160,
102,
51,
37,
27,
21,
33,
33,
26,
27,
25,
32,
20,
31,
22,
22,
15,
10,
17,
15,
17,
14,
10,
12,
13,
14,
9,
15,
12,
15,
11,
6,
8,
12,
6,
8,
10,
8,
8,
11,
8,
8,
10,
7,
12,
11,
9,
6,
6,
3,
3,
4,
8,
5,
4,
7,
4,
6,
4,
11,
5,
1,
3,
4,
4,
1,
0,
3,
8,
2,
0,
4,
1,
3,
1,
2,
2,
0,
2,
2,
1,
1,
0,
0,
0,
0,
0,
1,
2,
2,
2,
1,
1,
2,
0,
2,
1,
0,
1,
0,
0,
0,
1,
0,
0,
0,
0,
0,
0,
0,
0,
0,
0,
0,
0,
0,
0,
0,
1,
0,
0,
0,
0,
1,
0,
0,
0,
0,
0,
0,
0,
0,
0,
0,
0,
0,
0,
0,
0,
0,
0,
0,
0,
0,
0,
0,
0,
0,
0,
0,
0,
0,
0,
#ENDOFDATA   :