File: N132962/Standards/20 keV/BN std.msa
#FORMAT      : EMSA/MAS Spectral Data File
#VERSION     : 1.0
#TITLE       : BN std
#DATE        : 21-FEB-2025
#TIME        : 14:42
#OWNER       : Unknown
#NPOINTS     : 4096
#NCOLUMNS    : 1
#XUNITS      : eV
#YUNITS      : counts
#DATATYPE    : Y
#XPERCHAN    : 9.99778
#OFFSET      : 1.69135
#BEAMKV      : 20
#SIGNALTYPE  : EDS
#ELEVANGLE   : 35
#AZIMANGLE   : 0
#LIVETIME    : 720.474
#REALTIME    : 732.351
#PROBECUR    : 1.06019
#TAUWIND     : 0
#TDEADLYR    : 0
#TACTLYR     : 0.045
#TALWIND     : 0.025
#CHOFFSET    : 0.0
#XLABEL      : Energy (eV)
#YLABEL      : Counts
#EDSDET      : SD
##SPECIMEN   : BN std
##D2STDCMP   : BN,(B:43.5617),(N:56.4384),5.0
##DET_HASH   : 12273538-fd48-a23f-0a19-f1e6fa85caef
##CALIB_HASH : 6abaa72c-aa41-8738-0be9-f592914732f3
##WORKING    : 15.0 mm
##SAMPLE     : <BulkSample id="1">\n<mOrientation id="2">\n<double>0.0</double>\n<double>0.0</double>\n<double>-1.0</double>\n</mOrientation>\n</BulkSample>
##MULTISPEC  : 1.40919
##DET_NAME   : EDAX All
#SPECTRUM    :
117,
16233,
18700,
115855,
5182,
4066,
4782,
5821,
6681,
6983,
7274,
7329,
7217,
6718,
5413,
5095,
4739,
4409,
4119,
3988,
3736,
3472,
3268,
3058,
2873,
2754,
2584,
2506,
2318,
2262,
2021,
2028,
1849,
1834,
1814,
1620,
1577,
1508,
1468,
1475,
1344,
1236,
1226,
1211,
1157,
1091,
1208,
975,
911,
931,
857,
797,
768,
758,
739,
662,
694,
660,
624,
612,
553,
511,
528,
496,
484,
454,
433,
409,
396,
333,
384,
360,
319,
339,
312,
243,
275,
262,
247,
263,
223,
210,
191,
192,
178,
210,
147,
163,
141,
152,
133,
121,
102,
100,
82,
104,
110,
92,
78,
69,
69,
82,
49,
47,
49,
43,
62,
31,
29,
25,
32,
30,
18,
23,
18,
14,
14,
13,
8,
12,
5,
1,
5,
2,
2,
1,
0,
1,
0,
1,
0,
1,
0,
0,
0,
0,
0,
0,
0,
0,
0,
0,
0,
0,
0,
0,
0,
0,
0,
0,
0,
0,
0,
0,
0,
0,
0,
0,
0,
0,
0,
0,
0,
0,
0,
0,
0,
0,
0,
0,
0,
0,
0,
0,
0,
0,
0,
0,
0,
0,
0,
0,
0,
0,
0,
0,
0,
0,
0,
0,
0,
0,
0,
0,
0,
0,
0,
0,
0,
0,
0,
0,
0,
0,
0,
0,
0,
0,
0,
0,
0,
0,
0,
0,
0,
0,
0,
0,
0,
0,
0,
0,
0,
0,
0,
0,
0,
0,
0,
0,
0,
0,
0,
0,
0,
0,
0,
0,
0,
0,
0,
0,
0,
0,
0,
0,
0,
0,
0,
0,
0,
0,
0,
0,
0,
0,
0,
0,
0,
0,
0,
0,
0,
0,
0,
0,
0,
0,
0,
0,
0,
0,
0,
0,
0,
0,
0,
0,
0,
0,
0,
0,
0,
0,
0,
0,
0,
0,
0,
0,
0,
0,
0,
0,
#ENDOFDATA   :