File: N132962/Standards/20 keV/C std.msa
#FORMAT      : EMSA/MAS Spectral Data File
#VERSION     : 1.0
#TITLE       : C std
#DATE        : 19-MAR-2025
#TIME        : 21:50
#OWNER       : Unknown
#NPOINTS     : 4096
#NCOLUMNS    : 1
#XUNITS      : eV
#YUNITS      : counts
#DATATYPE    : Y
#XPERCHAN    : 9.99778
#OFFSET      : 1.69135
#BEAMKV      : 20
#SIGNALTYPE  : EDS
#ELEVANGLE   : 35
#AZIMANGLE   : 0
#LIVETIME    : 1439.86
#REALTIME    : 1505.41
#PROBECUR    : 1.03427
#TAUWIND     : 0
#TDEADLYR    : 0
#TACTLYR     : 0.045
#TALWIND     : 0.025
#CHOFFSET    : 0.0
#XLABEL      : Energy (eV)
#YLABEL      : Counts
#EDSDET      : SD
##SPECIMEN   : C std
##D2STDCMP   : C,(C:100.0)
##DET_HASH   : 12273538-fd48-a23f-0a19-f1e6fa85caef
##CALIB_HASH : 6abaa72c-aa41-8738-0be9-f592914732f3
##WORKING    : 15.0 mm
##SAMPLE     : <BulkSample id="1">\n<mOrientation id="2">\n<double>0.0</double>\n<double>0.0</double>\n<double>-1.0</double>\n</mOrientation>\n</BulkSample>
##MULTISPEC  : 1.63967
##DET_NAME   : EDAX All
##DET_MODE   : MediumLE
#SPECTRUM    :
137,
6004,
2662746,
3627,
13740,
6837,
9556,
12320,
13569,
15306,
15888,
15638,
15500,
14613,
12191,
11432,
10887,
9977,
9434,
8895,
8392,
7849,
7465,
6960,
6717,
6306,
6152,
5755,
5473,
5204,
4880,
4709,
4404,
4233,
4026,
3969,
3650,
3652,
3389,
3236,
3182,
3084,
2846,
2758,
2570,
2608,
2560,
2408,
2237,
2180,
2145,
1943,
1918,
2035,
1888,
1679,
1698,
1953,
1799,
1441,
1429,
1583,
1578,
1346,
1279,
1167,
1137,
1079,
1095,
1045,
979,
886,
872,
859,
853,
750,
757,
729,
699,
674,
645,
595,
587,
572,
513,
476,
487,
472,
446,
422,
418,
386,
375,
346,
302,
272,
303,
282,
262,
262,
250,
215,
177,
186,
175,
166,
172,
155,
140,
126,
128,
125,
116,
92,
106,
86,
76,
90,
88,
63,
52,
59,
63,
45,
55,
41,
33,
34,
41,
30,
8,
28,
23,
16,
20,
13,
10,
9,
4,
10,
4,
6,
2,
0,
0,
0,
0,
0,
0,
0,
0,
1,
0,
1,
0,
0,
0,
0,
0,
0,
0,
0,
0,
0,
0,
0,
0,
0,
0,
0,
0,
0,
0,
0,
0,
0,
0,
0,
0,
0,
0,
0,
0,
0,
0,
0,
0,
0,
0,
0,
0,
0,
0,
0,
0,
0,
0,
0,
0,
0,
0,
0,
0,
0,
0,
0,
0,
0,
0,
0,
0,
0,
0,
0,
0,
0,
0,
0,
0,
0,
0,
0,
0,
0,
0,
0,
0,
0,
0,
0,
0,
0,
0,
0,
0,
0,
0,
0,
0,
0,
0,
0,
0,
0,
0,
0,
0,
0,
0,
0,
0,
0,
0,
0,
0,
0,
0,
0,
0,
0,
0,
0,
0,
0,
0,
0,
0,
0,
0,
0,
0,
0,
0,
0,
0,
0,
0,
0,
0,
0,
0,
0,
0,
0,
0,
0,
0,
0,
0,
0,
0,
0,
0,
0,
#ENDOFDATA   :