File: N132962/Standards/20 keV/CaF2 std.msa
#FORMAT      : EMSA/MAS Spectral Data File
#VERSION     : 1.0
#TITLE       : CaF2 std
#DATE        : 12-SEP-2025
#TIME        : 09:46
#OWNER       : Unknown
#NPOINTS     : 4096
#NCOLUMNS    : 1
#XUNITS      : eV
#YUNITS      : counts
#DATATYPE    : Y
#XPERCHAN    : 9.99778
#OFFSET      : 1.69135
#BEAMKV      : 20
#SIGNALTYPE  : EDS
#ELEVANGLE   : 35
#AZIMANGLE   : 0
#LIVETIME    : 1200.62
#REALTIME    : 1296.22
#PROBECUR    : 1.23853
#TAUWIND     : 0
#TDEADLYR    : 0
#TACTLYR     : 0.045
#TALWIND     : 0.025
#CHOFFSET    : 0.0
#XLABEL      : Energy (eV)
#YLABEL      : Counts
#EDSDET      : SD
##SPECIMEN   : CaF2 std
##D2STDCMP   : CaF2,(F:48.6667),(Ca:51.3333)
##DET_HASH   : 12273538-fd48-a23f-0a19-f1e6fa85caef
##CALIB_HASH : 6abaa72c-aa41-8738-0be9-f592914732f3
##WORKING    : 15.0 mm
##SAMPLE     : <BulkSample id="1">\n<mOrientation id="2">\n<double>0.0</double>\n<double>0.0</double>\n<double>-1.0</double>\n</mOrientation>\n</BulkSample>
##MULTISPEC  : 0.89472
##DET_NAME   : EDAX All
##DET_MODE   : MediumLE
#SPECTRUM    :
1695,
2864,
131398,
11225,
25729,
451764,
12401,
14280,
17298,
21274,
23747,
24574,
26880,
27802,
38536,
23385,
24261,
22577,
21797,
20994,
20198,
19755,
19560,
19023,
17861,
27053,
839854,
306622,
53139,
131338,
10627,
12195,
10044,
9700,
9577,
9319,
9079,
8894,
8820,
8656,
8405,
8048,
7763,
7701,
7267,
7497,
7770,
6787,
6576,
6258,
6324,
6084,
6362,
7608,
5764,
5729,
5222,
5027,
4906,
4704,
4618,
4366,
4132,
4152,
4024,
3775,
3643,
3614,
3471,
3301,
3287,
3190,
3091,
3039,
2777,
2756,
2641,
2602,
2401,
2425,
2248,
2226,
2130,
2000,
1961,
1936,
1732,
1639,
1634,
1567,
1478,
1382,
1364,
1324,
1280,
1247,
1169,
1134,
1036,
992,
937,
884,
868,
787,
739,
700,
704,
622,
625,
545,
500,
528,
477,
435,
402,
377,
368,
338,
322,
324,
261,
287,
245,
241,
195,
189,
194,
154,
157,
117,
93,
100,
103,
65,
75,
45,
52,
42,
35,
25,
12,
14,
3,
5,
3,
3,
3,
4,
1,
3,
0,
1,
0,
2,
1,
1,
1,
1,
0,
1,
0,
1,
1,
1,
1,
2,
0,
0,
1,
0,
0,
0,
1,
0,
0,
0,
0,
0,
1,
1,
0,
1,
0,
0,
1,
0,
0,
0,
0,
1,
0,
0,
0,
0,
0,
0,
0,
2,
1,
0,
0,
0,
0,
0,
0,
1,
0,
0,
0,
0,
0,
0,
0,
0,
0,
0,
0,
0,
0,
0,
0,
0,
0,
0,
0,
0,
0,
0,
0,
0,
0,
0,
0,
0,
0,
0,
0,
0,
0,
0,
0,
0,
0,
0,
0,
0,
0,
0,
0,
0,
0,
0,
0,
0,
0,
0,
0,
0,
0,
0,
0,
0,
0,
0,
0,
0,
0,
0,
0,
0,
0,
0,
0,
0,
0,
0,
0,
0,
0,
0,
0,
0,
0,
0,
0,
0,
0,
0,
0,
0,
0,
0,
0,
0,
#ENDOFDATA   :