File: N132962/Standards/20 keV/Cd std.msa
#FORMAT      : EMSA/MAS Spectral Data File
#VERSION     : 1.0
#TITLE       : G588 Cd[0][all]+G588 Cd[1][all]+G588 Cd[2][all]
#NPOINTS     : 4096
#NCOLUMNS    : 1
#XUNITS      : eV
#YUNITS      : counts
#DATATYPE    : Y
#SIGNALTYPE  : EDS
#XLABEL      : Energy (eV)
#YLABEL      : Counts
#XPERCHAN -eV: 9.99778
#OFFSET   -eV: 1.69135
#CHOFFSET    : 0
#OWNER       : Unknown
#ELEVANGLE   : 35
#BEAMKV   -kV: 20
#LIVETIME  -s: 719.877
#REALTIME  -s: 800.851
#PROBECUR -nA: 1.04548
##WORKING -mm: 15
##D2STDCMP   : Cd,(Cd:100.0000),5.000
#SPECTRUM    :
86,
4859,
84623,
25831,
14917,
13863,
14439,
16213,
18760,
21064,
34109,
28412,
28270,
29358,
26065,
26257,
26135,
26535,
26464,
31719,
50541,
36755,
390813,
191119,
290786,
96836,
30658,
24974,
20362,
13237,
12263,
12059,
12367,
12285,
12269,
12227,
12363,
12167,
12014,
12098,
11611,
11450,
11679,
11094,
11275,
12084,
13014,
10792,
10396,
10282,
9938,
9607,
9193,
9745,
9051,
8877,
8428,
8283,
8185,
7908,
7701,
7446,
7512,
7303,
6800,
6810,
6664,
6261,
6309,
6178,
6020,
5801,
5659,
5522,
5418,
5271,
5160,
4980,
4771,
4509,
4408,
4267,
4174,
4001,
3836,
3687,
3629,
3519,
3429,
3258,
3199,
3095,
2831,
2837,
2706,
2436,
2409,
2312,
2155,
2180,
2097,
2013,
1928,
1788,
1746,
1631,
1580,
1506,
1477,
1332,
1278,
1288,
1190,
1070,
1079,
923,
937,
877,
827,
755,
795,
709,
685,
624,
609,
504,
530,
441,
421,
390,
350,
337,
267,
247,
249,
200,
165,
149,
148,
96,
82,
54,
37,
18,
10,
16,
11,
11,
8,
7,
11,
7,
8,
11,
11,
9,
5,
3,
3,
6,
7,
6,
5,
3,
1,
0,
2,
2,
4,
2,
3,
4,
3,
0,
0,
0,
0,
2,
4,
0,
2,
2,
3,
1,
4,
1,
0,
2,
2,
1,
0,
2,
0,
2,
1,
0,
2,
1,
1,
0,
2,
1,
0,
0,
0,
0,
0,
1,
1,
0,
0,
1,
0,
1,
2,
0,
0,
0,
0,
0,
0,
0,
0,
0,
0,
0,
0,
0,
0,
0,
1,
0,
0,
1,
1,
0,
0,
0,
0,
0,
0,
0,
0,
0,
0,
0,
0,
0,
0,
0,
0,
0,
0,
0,
0,
0,
0,
0,
0,
0,
0,
0,
0,
0,
0,
0,
0,
0,
0,
0,
0,
0,
0,
0,
0,
0,
0,
0,
0,
0,
0,
0,
0,
0,
0,
0,
0,
0,
0,
0,
0,
0,
0,
0,
#ENDOFDATA   :