File: N132962/Standards/20 keV/CeAl2 std.msa
#FORMAT      : EMSA/MAS Spectral Data File
#VERSION     : 1.0
#TITLE       : CeAl2 std
#DATE        : 24-FEB-2025
#TIME        : 09:13
#OWNER       : Unknown
#NPOINTS     : 4096
#NCOLUMNS    : 1
#XUNITS      : eV
#YUNITS      : counts
#DATATYPE    : Y
#XPERCHAN    : 9.99778
#OFFSET      : 1.69135
#BEAMKV      : 20
#SIGNALTYPE  : EDS
#ELEVANGLE   : 35
#AZIMANGLE   : 0
#LIVETIME    : 1919.68
#REALTIME    : 2088.466
#PROBECUR    : 1.02857
#TAUWIND     : 0
#TDEADLYR    : 0
#TACTLYR     : 0.045
#TALWIND     : 0.025
#CHOFFSET    : 0.0
#XLABEL      : Energy (eV)
#YLABEL      : Counts
#EDSDET      : SD
##SPECIMEN   : CeAl2 std
##D2STDCMP   : CeAl2,(Al:27.8047),(Ce:72.1953)
##DET_HASH   : 12273538-fd48-a23f-0a19-f1e6fa85caef
##CALIB_HASH : 6abaa72c-aa41-8738-0be9-f592914732f3
##WORKING    : 15.0 mm
##SAMPLE     : <BulkSample id="1">\n<mOrientation id="2">\n<double>0.0</double>\n<double>0.0</double>\n<double>-1.0</double>\n</mOrientation>\n</BulkSample>
##MULTISPEC  : 1.1531
##DET_NAME   : EDAX All
##DET_MODE   : MediumLE
#SPECTRUM    :
217,
3157,
83880,
50054,
77417,
224061,
170899,
49665,
60023,
43907,
108722,
368248,
38768,
41401,
38704,
40990,
42928,
44224,
44408,
44876,
44915,
45693,
49824,
44305,
43656,
45083,
43020,
41948,
40917,
40044,
45958,
57001,
38524,
41183,
294846,
423058,
37994,
143051,
288170,
57840,
158402,
40994,
28521,
68025,
33496,
42938,
29139,
23653,
21133,
20820,
20641,
20006,
19619,
20275,
19438,
18428,
17948,
18210,
17654,
16986,
16719,
16229,
15901,
15475,
15068,
14451,
14416,
13848,
14101,
13900,
13156,
12705,
12734,
12244,
11789,
11491,
11119,
10613,
10492,
10044,
9601,
9426,
9100,
8855,
8402,
8290,
7803,
7749,
7235,
7103,
6921,
6802,
6401,
6183,
5862,
5602,
5284,
5164,
5021,
4606,
4528,
4381,
4050,
3950,
3696,
3530,
3461,
3299,
3176,
2939,
2747,
2721,
2430,
2333,
2310,
2018,
2018,
1888,
1776,
1594,
1515,
1514,
1463,
1350,
1232,
1098,
1015,
930,
866,
810,
748,
638,
639,
532,
449,
426,
365,
327,
254,
203,
136,
110,
53,
28,
27,
36,
20,
19,
13,
18,
15,
16,
13,
13,
10,
15,
14,
9,
10,
13,
6,
8,
8,
13,
7,
6,
2,
7,
3,
15,
7,
7,
3,
2,
3,
4,
4,
9,
2,
6,
8,
7,
4,
2,
2,
5,
3,
2,
2,
4,
1,
1,
3,
5,
1,
3,
0,
0,
2,
2,
0,
0,
0,
1,
1,
1,
2,
3,
0,
2,
0,
0,
1,
1,
1,
1,
0,
1,
0,
0,
0,
0,
0,
0,
0,
0,
0,
0,
0,
0,
0,
1,
1,
0,
0,
0,
0,
0,
0,
0,
0,
0,
0,
0,
0,
0,
0,
1,
0,
0,
0,
0,
0,
0,
0,
0,
0,
0,
0,
0,
0,
0,
0,
0,
0,
0,
0,
0,
0,
0,
0,
0,
0,
0,
0,
0,
0,
0,
0,
0,
0,
0,
0,
0,
0,
0,
0,
0,
0,
0,
0,
0,
0,
0,
#ENDOFDATA   :