File: N132962/Standards/20 keV/Celsian std.msa
#FORMAT      : EMSA/MAS Spectral Data File
#VERSION     : 1.0
#TITLE       : Celsian std
#DATE        : 24-FEB-2025
#TIME        : 10:39
#OWNER       : Unknown
#NPOINTS     : 4096
#NCOLUMNS    : 1
#XUNITS      : eV
#YUNITS      : counts
#DATATYPE    : Y
#XPERCHAN    : 9.99778
#OFFSET      : 1.69135
#BEAMKV      : 20
#SIGNALTYPE  : EDS
#ELEVANGLE   : 35
#AZIMANGLE   : 0
#LIVETIME    : 959.261
#REALTIME    : 1028.39
#PROBECUR    : 1.03242
#TAUWIND     : 0
#TDEADLYR    : 0
#TACTLYR     : 0.045
#TALWIND     : 0.025
#CHOFFSET    : 0.0
#XLABEL      : Energy (eV)
#YLABEL      : Counts
#EDSDET      : SD
##SPECIMEN   : Celsian std
##D2STDCMP   : Celsian,(O:34.0901),(Al:14.3728),(Si:14.9606),(Ba:36.5764)
##DET_HASH   : 12273538-fd48-a23f-0a19-f1e6fa85caef
##CALIB_HASH : 6abaa72c-aa41-8738-0be9-f592914732f3
##WORKING    : 15.0 mm
##SAMPLE     : <BulkSample id="1">\n<mOrientation id="2">\n<double>0.0</double>\n<double>0.0</double>\n<double>-1.0</double>\n</mOrientation>\n</BulkSample>
##MULTISPEC  : 2.98893
##DET_NAME   : EDAX All
##DET_MODE   : MediumLE
#SPECTRUM    :
117,
1039,
29774,
32678,
258735,
16538,
18208,
23100,
16396,
17927,
39876,
135316,
125496,
65777,
14804,
14784,
16232,
15393,
15537,
15895,
15280,
15071,
15030,
15761,
18338,
14252,
13909,
13037,
18066,
13306,
12348,
24353,
195765,
13889,
46192,
62351,
16571,
38918,
9713,
13692,
14016,
11055,
9803,
7921,
7189,
7215,
7484,
6790,
6442,
6238,
6282,
5884,
5818,
6011,
5649,
5360,
5246,
5322,
5076,
5055,
4623,
4626,
4462,
4319,
4251,
4091,
3949,
3790,
3759,
3725,
3518,
3394,
3352,
3209,
3135,
2981,
2847,
2802,
2808,
2634,
2494,
2458,
2326,
2336,
2080,
2091,
2013,
2018,
1868,
1857,
1665,
1612,
1648,
1535,
1453,
1408,
1267,
1286,
1225,
1157,
1115,
1095,
1048,
968,
914,
909,
826,
751,
786,
697,
638,
662,
569,
526,
507,
476,
504,
367,
427,
392,
360,
323,
347,
283,
281,
226,
225,
216,
194,
171,
145,
136,
139,
107,
107,
74,
84,
84,
52,
58,
38,
14,
10,
3,
3,
3,
3,
3,
4,
0,
3,
2,
2,
1,
1,
1,
4,
2,
1,
3,
1,
1,
1,
1,
1,
0,
0,
1,
2,
0,
1,
0,
0,
1,
0,
2,
1,
0,
0,
0,
0,
1,
1,
0,
0,
0,
1,
0,
1,
0,
0,
0,
0,
0,
0,
1,
0,
0,
0,
1,
0,
0,
0,
0,
1,
0,
0,
0,
0,
0,
1,
0,
0,
0,
0,
0,
0,
1,
0,
0,
0,
0,
0,
0,
0,
0,
0,
0,
0,
0,
0,
0,
0,
0,
0,
0,
0,
0,
0,
0,
0,
0,
0,
0,
0,
1,
0,
0,
0,
0,
0,
0,
0,
0,
0,
0,
0,
0,
0,
0,
0,
0,
0,
0,
0,
0,
0,
0,
0,
0,
0,
0,
0,
0,
0,
0,
0,
0,
0,
0,
0,
0,
0,
0,
0,
0,
0,
0,
0,
0,
0,
0,
0,
0,
#ENDOFDATA   :