File: N132962/Standards/20 keV/Co std.msa
#FORMAT      : EMSA/MAS Spectral Data File
#VERSION     : 1.0
#TITLE       : Co std
#DATE        : 21-FEB-2025
#TIME        : 09:44
#OWNER       : Unknown
#NPOINTS     : 4096
#NCOLUMNS    : 1
#XUNITS      : eV
#YUNITS      : counts
#DATATYPE    : Y
#XPERCHAN    : 9.99778
#OFFSET      : 1.69135
#BEAMKV      : 20
#SIGNALTYPE  : EDS
#ELEVANGLE   : 35
#AZIMANGLE   : 0
#LIVETIME    : 1193.39
#REALTIME    : 1301
#PROBECUR    : 1.05789
#TAUWIND     : 0
#TDEADLYR    : 0
#TACTLYR     : 0.045
#TALWIND     : 0.025
#CHOFFSET    : 0.0
#XLABEL      : Energy (eV)
#YLABEL      : Counts
#EDSDET      : SD
##SPECIMEN   : Co std
##D2STDCMP   : Co,(Co:100.0),8.9
##DET_HASH   : 12273538-fd48-a23f-0a19-f1e6fa85caef
##CALIB_HASH : 6abaa72c-aa41-8738-0be9-f592914732f3
##WORKING    : 15.0 mm
##SAMPLE     : <BulkSample id="1">\n<mOrientation id="2">\n<double>0.0</double>\n<double>0.0</double>\n<double>-1.0</double>\n</mOrientation>\n</BulkSample>
##MULTISPEC  : 1.16555
##DET_NAME   : EDAX All
##DET_MODE   : MediumLE
#SPECTRUM    :
132,
1682,
41508,
31865,
58063,
372971,
111790,
12332,
15110,
18364,
21792,
24588,
24913,
26272,
24386,
25371,
26112,
26217,
25955,
26418,
25441,
25201,
24798,
24062,
23639,
22660,
22224,
21603,
20847,
20459,
19561,
19029,
19020,
17971,
17888,
16966,
16601,
18832,
16335,
17266,
14964,
14544,
14805,
13914,
13278,
13777,
16084,
13164,
18091,
508981,
393852,
13237,
11154,
13304,
57919,
86169,
8829,
7113,
7173,
7294,
7205,
6895,
6471,
6446,
6132,
6142,
6054,
5860,
5720,
5547,
5368,
5402,
5112,
4980,
4717,
4692,
4604,
4328,
4272,
4150,
4030,
3861,
3645,
3500,
3467,
3199,
3176,
3198,
2960,
2914,
2749,
2613,
2593,
2382,
2272,
2326,
2213,
2096,
2136,
2672,
1907,
1693,
1590,
1606,
1707,
1492,
1387,
1256,
1130,
1116,
1121,
1068,
943,
932,
892,
814,
705,
694,
652,
627,
561,
589,
511,
449,
413,
415,
373,
341,
307,
285,
270,
234,
224,
196,
170,
154,
126,
99,
87,
69,
71,
44,
24,
16,
14,
9,
14,
8,
11,
4,
6,
8,
9,
5,
4,
5,
9,
6,
2,
8,
4,
8,
9,
3,
4,
7,
3,
3,
4,
3,
2,
1,
5,
3,
4,
3,
4,
4,
1,
4,
1,
1,
4,
1,
1,
1,
0,
1,
1,
0,
0,
1,
2,
1,
0,
1,
0,
1,
0,
1,
2,
0,
0,
0,
0,
0,
0,
0,
0,
0,
0,
0,
0,
0,
0,
0,
0,
0,
0,
0,
0,
0,
0,
0,
0,
0,
0,
0,
0,
0,
0,
0,
0,
0,
0,
0,
0,
0,
0,
0,
0,
0,
0,
0,
0,
0,
0,
0,
0,
0,
0,
0,
0,
0,
0,
0,
0,
0,
0,
0,
0,
0,
0,
0,
0,
0,
0,
0,
0,
0,
0,
0,
0,
0,
0,
0,
0,
0,
0,
0,
0,
0,
0,
0,
0,
0,
0,
0,
0,
0,
0,
0,
0,
0,
#ENDOFDATA   :