File: N132962/Standards/20 keV/Cr std.msa
#FORMAT      : EMSA/MAS Spectral Data File
#VERSION     : 1.0
#TITLE       : Cr std
#DATE        : 20-FEB-2025
#TIME        : 16:50
#OWNER       : Unknown
#NPOINTS     : 4096
#NCOLUMNS    : 1
#XUNITS      : eV
#YUNITS      : counts
#DATATYPE    : Y
#XPERCHAN    : 9.99778
#OFFSET      : 1.69135
#BEAMKV      : 20
#SIGNALTYPE  : EDS
#ELEVANGLE   : 35
#AZIMANGLE   : 0
#LIVETIME    : 1199.09
#REALTIME    : 1312.2
#PROBECUR    : 1.04967
#TAUWIND     : 0
#TDEADLYR    : 0
#TACTLYR     : 0.045
#TALWIND     : 0.025
#CHOFFSET    : 0.0
#XLABEL      : Energy (eV)
#YLABEL      : Counts
#EDSDET      : SD
##SPECIMEN   : Cr std
##D2STDCMP   : Cr,(Cr:100.0),5.0
##DET_HASH   : 12273538-fd48-a23f-0a19-f1e6fa85caef
##CALIB_HASH : 6abaa72c-aa41-8738-0be9-f592914732f3
##WORKING    : 15.0 mm
##SAMPLE     : <BulkSample id="1">\n<mOrientation id="2">\n<double>0.0</double>\n<double>0.0</double>\n<double>-1.0</double>\n</mOrientation>\n</BulkSample>
##MULTISPEC  : 1.13889
##DET_NAME   : EDAX All
##DET_MODE   : MediumLE
#SPECTRUM    :
141,
1722,
34953,
75048,
535674,
12827,
13382,
15363,
18834,
21982,
24928,
26984,
31258,
31260,
26770,
27602,
27539,
27302,
26662,
26095,
25702,
24568,
24220,
23216,
22817,
22385,
28286,
21322,
20301,
19648,
19948,
18465,
18274,
17875,
16987,
16910,
16462,
19941,
368829,
1000221,
19136,
17193,
115634,
88407,
9062,
9721,
12021,
8559,
8546,
8333,
8513,
8213,
7915,
8218,
7713,
7229,
7122,
6950,
6866,
6684,
6493,
6274,
6299,
5944,
5962,
5628,
5533,
5367,
5304,
5088,
4917,
4807,
4736,
4454,
4394,
4258,
4368,
5923,
4851,
3771,
3721,
4081,
3523,
3218,
3069,
3014,
2875,
2808,
2752,
2563,
2431,
2355,
2130,
2105,
2045,
1951,
1827,
1815,
1803,
1652,
1636,
1524,
1424,
1364,
1304,
1225,
1176,
1138,
1039,
1002,
893,
921,
742,
746,
757,
710,
666,
621,
567,
531,
503,
458,
460,
377,
332,
350,
323,
302,
271,
245,
223,
198,
189,
183,
135,
125,
111,
102,
80,
67,
39,
35,
27,
12,
7,
8,
16,
4,
7,
12,
8,
8,
3,
5,
6,
4,
4,
4,
3,
5,
2,
5,
6,
1,
3,
1,
1,
3,
2,
1,
4,
1,
1,
2,
1,
0,
2,
0,
0,
0,
2,
0,
0,
0,
0,
0,
1,
2,
1,
0,
1,
1,
1,
1,
0,
0,
0,
0,
0,
0,
0,
0,
0,
0,
1,
0,
0,
0,
0,
1,
0,
0,
0,
0,
0,
0,
0,
0,
0,
0,
0,
0,
0,
0,
0,
0,
0,
0,
0,
0,
0,
0,
0,
0,
0,
0,
0,
0,
0,
0,
0,
0,
0,
0,
0,
0,
0,
0,
0,
0,
0,
0,
0,
0,
0,
0,
0,
0,
0,
0,
0,
0,
0,
0,
0,
0,
0,
0,
0,
0,
0,
0,
0,
0,
0,
0,
0,
0,
0,
0,
0,
0,
0,
0,
0,
0,
0,
0,
0,
0,
0,
0,
0,
0,
#ENDOFDATA   :