File: N132962/Standards/20 keV/Cryolite std.msa
#FORMAT      : EMSA/MAS Spectral Data File
#VERSION     : 1.0
#TITLE       : Cryolite std
#DATE        : 24-FEB-2025
#TIME        : 10:46
#OWNER       : Unknown
#NPOINTS     : 4096
#NCOLUMNS    : 1
#XUNITS      : eV
#YUNITS      : counts
#DATATYPE    : Y
#XPERCHAN    : 9.99778
#OFFSET      : 1.69135
#BEAMKV      : 20
#SIGNALTYPE  : EDS
#ELEVANGLE   : 35
#AZIMANGLE   : 0
#LIVETIME    : 959.356
#REALTIME    : 1035.75
#PROBECUR    : 1.03242
#TAUWIND     : 0
#TDEADLYR    : 0
#TACTLYR     : 0.045
#TALWIND     : 0.025
#CHOFFSET    : 0.0
#XLABEL      : Energy (eV)
#YLABEL      : Counts
#EDSDET      : SD
##SPECIMEN   : Cryolite std
##D2STDCMP   : Cryolite,(F:54.2963),(Na:32.8517),(Al:12.8519)
##DET_HASH   : 12273538-fd48-a23f-0a19-f1e6fa85caef
##CALIB_HASH : 6abaa72c-aa41-8738-0be9-f592914732f3
##WORKING    : 15.0 mm
##SAMPLE     : <BulkSample id="1">\n<mOrientation id="2">\n<double>0.0</double>\n<double>0.0</double>\n<double>-1.0</double>\n</mOrientation>\n</BulkSample>
##MULTISPEC  : 4.55737
##DET_NAME   : EDAX All
##DET_MODE   : MediumLE
#SPECTRUM    :
112,
1445,
22372,
18224,
54221,
1372904,
10796,
169637,
42305,
9428,
29817,
107246,
13213,
9637,
8682,
10686,
9264,
9228,
9736,
8678,
8582,
8382,
8013,
7755,
7526,
7120,
7034,
6789,
6335,
6329,
6090,
5834,
5543,
5392,
5088,
5101,
4801,
4723,
4543,
4468,
4110,
4056,
3884,
3689,
3578,
3534,
3610,
3224,
3069,
3107,
2939,
2792,
2656,
2737,
2584,
2524,
2369,
2484,
2395,
2100,
2063,
2129,
2159,
1960,
1851,
1734,
1695,
1658,
1572,
1500,
1471,
1336,
1297,
1286,
1191,
1165,
1170,
1048,
1093,
1073,
968,
875,
933,
879,
797,
814,
789,
778,
725,
681,
656,
596,
629,
529,
505,
514,
497,
440,
433,
379,
407,
356,
361,
312,
301,
292,
274,
269,
251,
224,
200,
197,
188,
141,
143,
160,
153,
121,
113,
131,
122,
99,
96,
94,
91,
84,
66,
62,
66,
45,
49,
51,
38,
36,
31,
29,
15,
14,
15,
11,
8,
8,
4,
2,
0,
0,
0,
1,
0,
0,
0,
0,
0,
0,
0,
0,
0,
0,
0,
0,
0,
1,
0,
0,
0,
0,
0,
0,
0,
1,
0,
1,
0,
0,
0,
0,
0,
0,
0,
0,
1,
0,
0,
0,
0,
0,
0,
0,
0,
0,
0,
0,
0,
0,
0,
0,
0,
0,
0,
0,
0,
0,
0,
0,
0,
1,
0,
0,
0,
0,
0,
0,
0,
0,
0,
0,
0,
0,
0,
0,
0,
0,
0,
0,
0,
0,
0,
0,
0,
0,
0,
0,
0,
0,
0,
0,
0,
0,
0,
0,
1,
0,
0,
0,
0,
0,
0,
0,
0,
0,
0,
0,
0,
0,
0,
0,
0,
0,
0,
0,
0,
0,
0,
0,
0,
0,
0,
0,
0,
0,
0,
0,
0,
0,
0,
0,
0,
0,
0,
0,
0,
0,
0,
0,
0,
0,
0,
0,
0,
0,
0,
0,
0,
0,
#ENDOFDATA   :