File: N132962/Standards/20 keV/CsBr std.msa
#FORMAT      : EMSA/MAS Spectral Data File
#VERSION     : 1.0
#TITLE       : CsBr std
#DATE        : 12-SEP-2025
#TIME        : 11:03
#OWNER       : Unknown
#NPOINTS     : 4096
#NCOLUMNS    : 1
#XUNITS      : eV
#YUNITS      : counts
#DATATYPE    : Y
#XPERCHAN    : 9.99778
#OFFSET      : 1.69135
#BEAMKV      : 20
#SIGNALTYPE  : EDS
#ELEVANGLE   : 35
#AZIMANGLE   : 0
#LIVETIME    : 2395.44
#REALTIME    : 2660.15
#PROBECUR    : 1.23977
#TAUWIND     : 0
#TDEADLYR    : 0
#TACTLYR     : 0.045
#TALWIND     : 0.025
#CHOFFSET    : 0.0
#XLABEL      : Energy (eV)
#YLABEL      : Counts
#EDSDET      : SD
##SPECIMEN   : CsBr std
##D2STDCMP   : CsBr,(Br:37.5475),(Cs:62.4525),5.0
##DET_HASH   : 12273538-fd48-a23f-0a19-f1e6fa85caef
##CALIB_HASH : 6abaa72c-aa41-8738-0be9-f592914732f3
##WORKING    : 15.0 mm
##SAMPLE     : <BulkSample id="1">\n<mOrientation id="2">\n<double>0.0</double>\n<double>0.0</double>\n<double>-1.0</double>\n</mOrientation>\n</BulkSample>
##MULTISPEC  : 1.73358
##DET_NAME   : EDAX All
##DET_MODE   : MediumLE
#SPECTRUM    :
292,
6324,
112055,
66161,
285803,
159543,
69853,
87039,
65998,
105743,
191428,
819016,
71084,
69118,
62746,
66914,
70043,
71562,
82024,
73953,
75013,
76863,
73609,
73940,
71633,
71443,
71501,
109533,
71525,
74384,
346786,
726901,
82722,
639611,
166868,
209617,
84252,
62790,
105059,
56959,
62735,
47040,
41402,
40448,
40603,
41083,
44410,
37946,
37449,
36457,
36071,
34925,
34308,
35318,
33494,
31893,
31094,
30494,
29802,
29777,
28627,
28385,
27672,
26998,
26524,
25276,
24932,
23908,
23976,
22818,
22420,
21589,
21175,
20561,
19631,
19230,
18685,
18187,
17521,
17171,
16346,
16068,
15713,
15603,
36329,
112681,
32500,
13294,
12502,
12084,
11672,
11384,
10942,
10432,
14833,
22388,
12113,
8968,
8155,
7711,
7548,
7165,
6825,
6443,
6222,
6033,
5743,
5540,
5216,
5069,
4670,
4458,
4249,
4052,
3804,
3686,
3544,
3283,
3121,
2834,
2800,
2510,
2453,
2237,
2051,
1989,
1804,
1659,
1528,
1310,
1251,
1166,
1070,
881,
808,
733,
634,
539,
479,
407,
275,
193,
121,
60,
56,
48,
38,
39,
43,
51,
34,
32,
47,
31,
28,
40,
18,
29,
34,
18,
23,
22,
21,
15,
16,
14,
21,
10,
9,
15,
27,
9,
10,
10,
15,
6,
16,
13,
11,
15,
12,
9,
16,
10,
5,
11,
6,
9,
4,
10,
8,
7,
6,
4,
6,
4,
6,
3,
4,
1,
3,
4,
3,
2,
0,
1,
5,
2,
3,
2,
2,
4,
1,
1,
0,
1,
2,
2,
1,
3,
0,
0,
1,
3,
0,
0,
0,
0,
0,
0,
0,
0,
0,
0,
0,
0,
0,
0,
0,
1,
0,
0,
1,
0,
0,
0,
0,
0,
0,
0,
0,
0,
0,
0,
0,
0,
0,
0,
0,
0,
0,
0,
0,
1,
0,
0,
0,
0,
0,
0,
0,
0,
0,
0,
0,
0,
0,
0,
0,
0,
0,
0,
0,
0,
0,
0,
0,
0,
0,
0,
0,
0,
0,
0,
#ENDOFDATA   :