File: N132962/Standards/20 keV/CsI std.msa
#FORMAT      : EMSA/MAS Spectral Data File
#VERSION     : 1.0
#TITLE       : CsI std
#DATE        : 21-MAR-2025
#TIME        : 14:29
#OWNER       : Unknown
#NPOINTS     : 4096
#NCOLUMNS    : 1
#XUNITS      : eV
#YUNITS      : counts
#DATATYPE    : Y
#XPERCHAN    : 9.99778
#OFFSET      : 1.69135
#BEAMKV      : 20
#SIGNALTYPE  : EDS
#ELEVANGLE   : 35
#AZIMANGLE   : 0
#LIVETIME    : 958.41
#REALTIME    : 1057.4
#PROBECUR    : 1.02926
#TAUWIND     : 0
#TDEADLYR    : 0
#TACTLYR     : 0.045
#TALWIND     : 0.025
#CHOFFSET    : 0.0
#XLABEL      : Energy (eV)
#YLABEL      : Counts
#EDSDET      : SD
##SPECIMEN   : CsI std
##D2STDCMP   : CsI,(I:48.8451),(Cs:51.1549)
##DET_HASH   : 12273538-fd48-a23f-0a19-f1e6fa85caef
##CALIB_HASH : 6abaa72c-aa41-8738-0be9-f592914732f3
##WORKING    : 15.0 mm
##SAMPLE     : <BulkSample id="1">\n<mOrientation id="2">\n<double>0.0</double>\n<double>0.0</double>\n<double>-1.0</double>\n</mOrientation>\n</BulkSample>
##MULTISPEC  : 0.917527
##DET_NAME   : EDAX All
##DET_MODE   : MediumLE
#SPECTRUM    :
102,
7895,
74079,
53481,
144079,
32778,
26166,
26818,
18316,
20491,
23402,
26038,
28618,
30557,
27584,
29520,
31508,
30344,
33782,
30268,
30271,
30063,
29197,
28862,
28832,
40960,
28149,
48020,
364513,
46508,
256621,
262607,
75067,
175186,
62676,
59967,
33451,
21351,
29754,
17655,
19680,
15380,
14022,
13821,
13713,
14258,
14750,
13321,
12992,
13033,
12853,
12281,
12440,
12768,
11994,
11432,
11455,
11506,
11438,
11012,
10691,
10709,
10363,
9957,
9685,
9418,
9129,
8893,
8905,
8440,
8229,
8051,
7709,
7737,
7477,
7089,
6967,
6707,
6595,
6473,
6158,
5964,
5722,
5509,
5377,
5193,
5011,
4848,
4786,
4497,
4329,
4175,
4114,
3997,
3710,
3674,
3386,
3309,
3181,
3090,
2811,
2766,
2646,
2635,
2448,
2308,
2203,
2103,
1976,
1967,
1918,
1702,
1678,
1587,
1535,
1385,
1381,
1175,
1192,
1053,
1081,
913,
915,
845,
786,
781,
747,
655,
640,
580,
560,
458,
383,
374,
339,
305,
228,
215,
177,
143,
110,
69,
42,
27,
11,
14,
25,
15,
13,
11,
13,
12,
10,
22,
11,
14,
8,
9,
11,
7,
6,
4,
9,
4,
4,
2,
6,
6,
5,
7,
4,
0,
3,
2,
3,
1,
7,
3,
3,
1,
1,
5,
1,
2,
5,
3,
0,
2,
4,
4,
1,
2,
1,
2,
2,
1,
1,
3,
2,
3,
0,
1,
3,
0,
0,
1,
1,
0,
0,
0,
0,
1,
0,
1,
1,
0,
0,
0,
0,
0,
0,
0,
0,
0,
0,
0,
0,
0,
0,
1,
0,
0,
0,
0,
0,
0,
0,
0,
0,
0,
0,
0,
1,
0,
0,
0,
0,
0,
0,
0,
0,
0,
0,
0,
0,
0,
0,
0,
0,
0,
0,
0,
0,
0,
0,
0,
0,
0,
0,
0,
0,
0,
0,
0,
0,
0,
0,
0,
0,
0,
0,
0,
0,
0,
0,
0,
0,
0,
0,
0,
0,
0,
0,
0,
#ENDOFDATA   :