File: N132962/Standards/20 keV/Cu std.msa
#FORMAT      : EMSA/MAS Spectral Data File
#VERSION     : 1.0
#TITLE       : Cu std
#DATE        : 21-FEB-2025
#TIME        : 09:32
#OWNER       : Unknown
#NPOINTS     : 4096
#NCOLUMNS    : 1
#XUNITS      : eV
#YUNITS      : counts
#DATATYPE    : Y
#XPERCHAN    : 9.99778
#OFFSET      : 1.69135
#BEAMKV      : 20
#SIGNALTYPE  : EDS
#ELEVANGLE   : 35
#AZIMANGLE   : 0
#LIVETIME    : 719.216
#REALTIME    : 797.4771
#PROBECUR    : 1.05789
#TAUWIND     : 0
#TDEADLYR    : 0
#TACTLYR     : 0.045
#TALWIND     : 0.025
#CHOFFSET    : 0.0
#XLABEL      : Energy (eV)
#YLABEL      : Counts
#EDSDET      : SD
##SPECIMEN   : Cu std
##D2STDCMP   : Cu,(Cu:100.0)
##DET_HASH   : 12273538-fd48-a23f-0a19-f1e6fa85caef
##CALIB_HASH : 6abaa72c-aa41-8738-0be9-f592914732f3
##WORKING    : 15.0 mm
##SAMPLE     : <BulkSample id="1">\n<mOrientation id="2">\n<double>0.0</double>\n<double>0.0</double>\n<double>-1.0</double>\n</mOrientation>\n</BulkSample>
##MULTISPEC  : 12.9057
##DET_NAME   : EDAX All
##DET_MODE   : MediumLE
#SPECTRUM    :
79,
1149,
41318,
17152,
30915,
37151,
194985,
395458,
8486,
9973,
11635,
13291,
15946,
18845,
14308,
15004,
15616,
15723,
16047,
16418,
15485,
15635,
15207,
15026,
14874,
14303,
13950,
13548,
13319,
12660,
12758,
12309,
11995,
11469,
11221,
11027,
10708,
10091,
10062,
9978,
9493,
9151,
9221,
8721,
8317,
9608,
9728,
7524,
7565,
7408,
7236,
6861,
6690,
6981,
6659,
6836,
10643,
242852,
160014,
6652,
5646,
5479,
6071,
28222,
37139,
4740,
3723,
3718,
3673,
3732,
3734,
3471,
3330,
3142,
3150,
3018,
2995,
2781,
2709,
2603,
2555,
2542,
2480,
2383,
2282,
2138,
2132,
2021,
1910,
1862,
1808,
1703,
1686,
1580,
1557,
1522,
1442,
1450,
1281,
1281,
1221,
1129,
1073,
1024,
950,
941,
881,
842,
817,
747,
742,
684,
644,
594,
645,
742,
554,
458,
407,
426,
383,
438,
379,
311,
275,
276,
239,
240,
246,
188,
173,
150,
159,
122,
126,
110,
84,
65,
58,
55,
31,
27,
16,
5,
3,
7,
4,
9,
7,
4,
4,
5,
5,
4,
3,
4,
6,
7,
3,
7,
3,
4,
1,
6,
4,
3,
2,
1,
4,
4,
2,
3,
2,
0,
2,
0,
1,
5,
0,
1,
2,
1,
2,
2,
1,
2,
1,
0,
1,
0,
0,
1,
1,
0,
0,
0,
0,
0,
0,
1,
0,
1,
0,
1,
0,
0,
0,
0,
0,
0,
0,
0,
0,
0,
0,
0,
0,
0,
0,
0,
0,
0,
0,
0,
1,
0,
0,
0,
0,
0,
0,
0,
0,
0,
0,
0,
0,
0,
0,
0,
0,
0,
0,
0,
0,
0,
0,
0,
0,
0,
0,
0,
0,
0,
0,
0,
0,
0,
0,
0,
0,
0,
0,
0,
0,
0,
0,
0,
0,
0,
0,
0,
0,
0,
0,
0,
0,
0,
0,
0,
0,
0,
0,
0,
0,
0,
0,
0,
0,
0,
0,
0,
0,
0,
#ENDOFDATA   :