File: N132962/Standards/20 keV/Dy std.msa
#FORMAT      : EMSA/MAS Spectral Data File
#VERSION     : 1.0
#TITLE       : Dy std
#DATE        : 20-FEB-2025
#TIME        : 13:26
#OWNER       : Unknown
#NPOINTS     : 4096
#NCOLUMNS    : 1
#XUNITS      : eV
#YUNITS      : counts
#DATATYPE    : Y
#XPERCHAN    : 9.99778
#OFFSET      : 1.69135
#BEAMKV      : 20
#SIGNALTYPE  : EDS
#ELEVANGLE   : 35
#AZIMANGLE   : 0
#LIVETIME    : 719.8913
#REALTIME    : 796.782
#PROBECUR    : 1.04644
#TAUWIND     : 0
#TDEADLYR    : 0
#TACTLYR     : 0.045
#TALWIND     : 0.025
#CHOFFSET    : 0.0
#XLABEL      : Energy (eV)
#YLABEL      : Counts
#EDSDET      : SD
##SPECIMEN   : Dy std
##D2STDCMP   : Dy,(Dy:100.0),5.0
##DET_HASH   : 12273538-fd48-a23f-0a19-f1e6fa85caef
##CALIB_HASH : 6abaa72c-aa41-8738-0be9-f592914732f3
##WORKING    : 15.0 mm
##SAMPLE     : <BulkSample id="1">\n<mOrientation id="2">\n<double>0.0</double>\n<double>0.0</double>\n<double>-1.0</double>\n</mOrientation>\n</BulkSample>
##MULTISPEC  : 1.46467
##DET_NAME   : EDAX All
##DET_MODE   : MediumLE
#SPECTRUM    :
93,
1807,
34221,
23061,
39959,
43804,
38281,
146290,
44430,
168040,
33930,
30420,
24836,
18146,
16252,
16786,
17812,
18315,
19224,
19928,
19757,
20606,
20637,
20672,
20141,
20759,
20381,
20330,
19939,
19738,
19690,
19178,
18906,
19022,
19172,
18278,
17946,
17532,
17321,
17708,
17246,
27759,
17288,
15786,
15620,
18970,
211565,
102097,
14704,
13796,
14163,
46307,
119535,
31747,
38642,
37118,
11310,
9834,
10371,
11484,
26552,
11952,
13576,
11029,
8769,
8252,
7541,
7365,
7305,
7150,
7066,
6784,
6766,
6687,
6577,
6264,
6234,
6007,
5868,
5502,
5395,
5258,
5234,
5045,
4842,
4813,
4475,
4376,
4339,
4176,
4015,
3849,
3790,
3722,
3379,
3350,
3114,
3061,
3077,
2967,
2895,
2657,
2538,
2395,
2385,
2249,
2098,
2017,
1839,
1889,
1755,
1679,
1646,
1560,
1344,
1335,
1294,
1217,
1183,
1066,
1055,
1019,
918,
823,
799,
744,
653,
649,
599,
537,
520,
445,
401,
378,
365,
285,
261,
198,
208,
147,
97,
92,
57,
31,
23,
26,
24,
14,
13,
14,
13,
13,
8,
14,
14,
12,
12,
13,
10,
7,
10,
8,
12,
10,
9,
7,
7,
5,
5,
8,
5,
6,
3,
6,
6,
7,
5,
10,
5,
8,
3,
4,
2,
4,
3,
1,
2,
3,
3,
3,
3,
2,
0,
2,
2,
2,
0,
2,
1,
2,
0,
2,
1,
0,
1,
1,
0,
1,
2,
3,
0,
0,
0,
2,
1,
1,
0,
3,
0,
1,
1,
0,
0,
0,
0,
2,
0,
0,
0,
0,
1,
1,
0,
2,
0,
0,
0,
0,
0,
0,
1,
0,
1,
0,
0,
1,
1,
0,
0,
0,
0,
0,
0,
0,
0,
0,
0,
0,
0,
0,
0,
0,
0,
0,
0,
0,
0,
0,
0,
0,
0,
0,
0,
0,
0,
0,
0,
0,
0,
0,
0,
0,
0,
0,
0,
0,
0,
0,
0,
0,
0,
0,
0,
0,
#ENDOFDATA   :