File: N132962/Standards/20 keV/EuF3 std.msa
#FORMAT      : EMSA/MAS Spectral Data File
#VERSION     : 1.0
#TITLE       : EuF3 std
#DATE        : 19-MAR-2025
#TIME        : 17:25
#OWNER       : Unknown
#NPOINTS     : 4096
#NCOLUMNS    : 1
#XUNITS      : eV
#YUNITS      : counts
#DATATYPE    : Y
#XPERCHAN    : 9.99778
#OFFSET      : 1.69135
#BEAMKV      : 20
#SIGNALTYPE  : EDS
#ELEVANGLE   : 35
#AZIMANGLE   : 0
#LIVETIME    : 1199.57
#REALTIME    : 1303.14
#PROBECUR    : 1.03276
#TAUWIND     : 0
#TDEADLYR    : 0
#TACTLYR     : 0.045
#TALWIND     : 0.025
#CHOFFSET    : 0.0
#XLABEL      : Energy (eV)
#YLABEL      : Counts
#EDSDET      : SD
##SPECIMEN   : EuF3 std
##D2STDCMP   : EuF3,(F:27.2758),(Eu:72.7242)
##DET_HASH   : 12273538-fd48-a23f-0a19-f1e6fa85caef
##CALIB_HASH : 6abaa72c-aa41-8738-0be9-f592914732f3
##WORKING    : 15.0 mm
##SAMPLE     : <BulkSample id="1">\n<mOrientation id="2">\n<double>0.0</double>\n<double>0.0</double>\n<double>-1.0</double>\n</mOrientation>\n</BulkSample>
##MULTISPEC  : 2.10539
##DET_NAME   : EDAX All
##DET_MODE   : MediumLE
#SPECTRUM    :
135,
2285,
56146,
38122,
58773,
586562,
115957,
45538,
203508,
25878,
30429,
26977,
24136,
26017,
23335,
24958,
25389,
26188,
26679,
27141,
26889,
27110,
26863,
26554,
26711,
26232,
26027,
25393,
25052,
25763,
24272,
23358,
23372,
22828,
22414,
21721,
22303,
35537,
20777,
19951,
20377,
95750,
309887,
21886,
18069,
23963,
180975,
61313,
27593,
71954,
16411,
13389,
13898,
30797,
21053,
16491,
16479,
12404,
11222,
10400,
9886,
9873,
9727,
9441,
9242,
9170,
8673,
8649,
8433,
8158,
8099,
7776,
7399,
7424,
7148,
6940,
6809,
6613,
6476,
6362,
5988,
5873,
5639,
5590,
5427,
5099,
5000,
4722,
4672,
4508,
4280,
4176,
3864,
3857,
3752,
3590,
3397,
3257,
3157,
3021,
2922,
2632,
2680,
2491,
2436,
2240,
2080,
2066,
1994,
1815,
1723,
1593,
1599,
1503,
1407,
1397,
1218,
1181,
1106,
1095,
992,
1030,
875,
831,
793,
664,
629,
611,
560,
545,
446,
429,
388,
331,
290,
240,
240,
170,
171,
112,
109,
63,
38,
19,
9,
13,
8,
13,
8,
6,
8,
10,
8,
11,
4,
12,
10,
9,
5,
7,
3,
12,
7,
8,
4,
5,
6,
2,
3,
1,
4,
2,
5,
1,
3,
1,
5,
4,
2,
4,
1,
2,
2,
1,
2,
3,
4,
1,
2,
2,
2,
0,
5,
0,
1,
2,
0,
0,
0,
0,
0,
0,
3,
1,
0,
2,
2,
1,
0,
0,
0,
0,
0,
0,
0,
0,
0,
0,
0,
0,
0,
0,
0,
0,
0,
0,
0,
0,
0,
0,
0,
0,
0,
0,
0,
0,
0,
0,
0,
0,
0,
0,
0,
0,
0,
0,
0,
0,
0,
0,
0,
0,
0,
0,
0,
0,
0,
0,
0,
0,
0,
0,
0,
0,
0,
0,
0,
0,
0,
0,
0,
0,
0,
0,
0,
0,
0,
0,
0,
0,
0,
0,
0,
0,
0,
0,
0,
0,
0,
0,
0,
0,
0,
0,
#ENDOFDATA   :