File: N132962/Standards/20 keV/Fe std.msa
#FORMAT      : EMSA/MAS Spectral Data File
#VERSION     : 1.0
#TITLE       : Fe std
#DATE        : 12-SEP-2025
#TIME        : 09:40
#OWNER       : Unknown
#NPOINTS     : 4096
#NCOLUMNS    : 1
#XUNITS      : eV
#YUNITS      : counts
#DATATYPE    : Y
#XPERCHAN    : 9.99778
#OFFSET      : 1.69135
#BEAMKV      : 20
#SIGNALTYPE  : EDS
#ELEVANGLE   : 35
#AZIMANGLE   : 0
#LIVETIME    : 1201.7
#REALTIME    : 1330.14
#PROBECUR    : 1.23853
#TAUWIND     : 0
#TDEADLYR    : 0
#TACTLYR     : 0.045
#TALWIND     : 0.025
#CHOFFSET    : 0.0
#XLABEL      : Energy (eV)
#YLABEL      : Counts
#EDSDET      : SD
##SPECIMEN   : Fe std
##D2STDCMP   : Fe,(Fe:100.0)
##DET_HASH   : 12273538-fd48-a23f-0a19-f1e6fa85caef
##CALIB_HASH : 6abaa72c-aa41-8738-0be9-f592914732f3
##WORKING    : 15.0 mm
##SAMPLE     : <BulkSample id="1">\n<mOrientation id="2">\n<double>0.0</double>\n<double>0.0</double>\n<double>-1.0</double>\n</mOrientation>\n</BulkSample>
##MULTISPEC  : 1.17334
##DET_NAME   : EDAX All
##DET_MODE   : MediumLE
#SPECTRUM    :
127,
1889,
48845,
39793,
187352,
947128,
16492,
14921,
18054,
23027,
27114,
27620,
31387,
32628,
29928,
30631,
31384,
31404,
31204,
30815,
30191,
29786,
29112,
28526,
27604,
26436,
25903,
25567,
24847,
23809,
22957,
22565,
21630,
25147,
20996,
19700,
19143,
18820,
18950,
17891,
16819,
16409,
16053,
16304,
19213,
322743,
978498,
24890,
14683,
17679,
127035,
70745,
9767,
9881,
9641,
9463,
8864,
8568,
8500,
8391,
7976,
7886,
7619,
7568,
7197,
7157,
6973,
6764,
6611,
6571,
6333,
6085,
5999,
5814,
5478,
5533,
5207,
5061,
4947,
4941,
4532,
4357,
4393,
4152,
4013,
3780,
3671,
3622,
3380,
3385,
3248,
4290,
3874,
2769,
2701,
2650,
2943,
2488,
2266,
2100,
2111,
1992,
1783,
1746,
1713,
1654,
1544,
1427,
1374,
1267,
1238,
1103,
1047,
1035,
976,
890,
916,
783,
744,
725,
668,
632,
663,
570,
520,
484,
439,
421,
348,
306,
296,
287,
256,
180,
227,
208,
149,
138,
115,
88,
75,
41,
23,
13,
17,
11,
18,
13,
11,
12,
12,
11,
13,
13,
4,
8,
6,
9,
5,
6,
4,
3,
3,
3,
3,
3,
4,
11,
7,
5,
5,
1,
3,
2,
1,
3,
2,
2,
3,
3,
1,
4,
2,
2,
2,
1,
1,
2,
1,
0,
1,
0,
0,
0,
1,
0,
0,
0,
0,
0,
1,
1,
0,
1,
0,
0,
0,
0,
1,
0,
0,
0,
0,
0,
0,
0,
0,
0,
0,
0,
0,
0,
0,
0,
0,
0,
0,
0,
0,
0,
0,
0,
0,
0,
0,
0,
0,
0,
0,
0,
0,
0,
0,
0,
0,
0,
0,
0,
0,
0,
0,
0,
0,
0,
0,
0,
0,
0,
0,
0,
0,
0,
0,
0,
0,
0,
0,
0,
0,
0,
0,
0,
0,
0,
0,
0,
0,
0,
0,
0,
0,
0,
0,
0,
0,
0,
0,
0,
0,
0,
0,
0,
0,
0,
#ENDOFDATA   :