File: N132962/Standards/20 keV/Fe2P std.msa
#FORMAT      : EMSA/MAS Spectral Data File
#VERSION     : 1.0
#TITLE       : Fe2P std
#DATE        : 24-FEB-2025
#TIME        : 10:08
#OWNER       : Unknown
#NPOINTS     : 4096
#NCOLUMNS    : 1
#XUNITS      : eV
#YUNITS      : counts
#DATATYPE    : Y
#XPERCHAN    : 9.99778
#OFFSET      : 1.69135
#BEAMKV      : 20
#SIGNALTYPE  : EDS
#ELEVANGLE   : 35
#AZIMANGLE   : 0
#LIVETIME    : 1199.68
#REALTIME    : 1303.38
#PROBECUR    : 1.03053
#TAUWIND     : 0
#TDEADLYR    : 0
#TACTLYR     : 0.045
#TALWIND     : 0.025
#CHOFFSET    : 0.0
#XLABEL      : Energy (eV)
#YLABEL      : Counts
#EDSDET      : SD
##SPECIMEN   : Fe2P std
##D2STDCMP   : Fe2P,(P:21.711),(Fe:78.289)
##DET_HASH   : 12273538-fd48-a23f-0a19-f1e6fa85caef
##CALIB_HASH : 6abaa72c-aa41-8738-0be9-f592914732f3
##WORKING    : 15.0 mm
##SAMPLE     : <BulkSample id="1">\n<mOrientation id="2">\n<double>0.0</double>\n<double>0.0</double>\n<double>-1.0</double>\n</mOrientation>\n</BulkSample>
##MULTISPEC  : 1.44189
##DET_NAME   : EDAX All
##DET_MODE   : MediumLE
#SPECTRUM    :
149,
1533,
52298,
24018,
99027,
616350,
15840,
17732,
17840,
21091,
24124,
26342,
28803,
31906,
321736,
101585,
23055,
21931,
22184,
22692,
21993,
21240,
20787,
20339,
20114,
19575,
18645,
18332,
17863,
18045,
16961,
16710,
16078,
17898,
15606,
14635,
14204,
14223,
14009,
13483,
12865,
12445,
12146,
12477,
13523,
204295,
620983,
16778,
10880,
12685,
81169,
45325,
7439,
7609,
7164,
7127,
6637,
6825,
6654,
6554,
7050,
6260,
5979,
5778,
5612,
5582,
5251,
5121,
5120,
4841,
4723,
4752,
4474,
4422,
4097,
4113,
4032,
3757,
3607,
3534,
3454,
3275,
3244,
3063,
2998,
2835,
2656,
2666,
2563,
2496,
2390,
2869,
2553,
2004,
1984,
1898,
1924,
1811,
1641,
1541,
1540,
1421,
1304,
1402,
1215,
1187,
1092,
1080,
1062,
902,
936,
842,
773,
763,
695,
723,
679,
582,
574,
520,
447,
451,
430,
417,
334,
332,
309,
310,
268,
237,
232,
233,
155,
161,
144,
112,
115,
89,
76,
57,
46,
42,
20,
11,
10,
4,
4,
8,
6,
9,
5,
1,
2,
4,
2,
7,
3,
4,
3,
7,
4,
4,
3,
0,
0,
3,
3,
3,
2,
4,
1,
2,
2,
0,
1,
1,
1,
1,
0,
1,
3,
0,
0,
1,
0,
3,
1,
1,
0,
0,
1,
0,
0,
1,
1,
0,
0,
0,
2,
0,
0,
1,
1,
0,
1,
0,
0,
1,
0,
0,
0,
0,
0,
0,
0,
0,
0,
0,
0,
0,
0,
0,
0,
0,
0,
0,
0,
0,
0,
0,
0,
0,
0,
0,
0,
0,
0,
0,
0,
0,
0,
0,
0,
0,
0,
0,
0,
0,
0,
0,
0,
0,
0,
0,
0,
0,
0,
0,
0,
0,
0,
0,
0,
0,
0,
0,
0,
0,
0,
0,
0,
0,
0,
0,
0,
0,
0,
0,
0,
0,
0,
0,
0,
0,
0,
0,
0,
0,
0,
0,
0,
0,
0,
0,
#ENDOFDATA   :