File: N132962/Standards/20 keV/FeS2 std.msa
#FORMAT      : EMSA/MAS Spectral Data File
#VERSION     : 1.0
#TITLE       : FeS2 std
#DATE        : 24-FEB-2025
#TIME        : 10:14
#OWNER       : Unknown
#NPOINTS     : 4096
#NCOLUMNS    : 1
#XUNITS      : eV
#YUNITS      : counts
#DATATYPE    : Y
#XPERCHAN    : 9.99778
#OFFSET      : 1.69135
#BEAMKV      : 20
#SIGNALTYPE  : EDS
#ELEVANGLE   : 35
#AZIMANGLE   : 0
#LIVETIME    : 1199.52
#REALTIME    : 1312.18
#PROBECUR    : 1.03053
#TAUWIND     : 0
#TDEADLYR    : 0
#TACTLYR     : 0.045
#TALWIND     : 0.025
#CHOFFSET    : 0.0
#XLABEL      : Energy (eV)
#YLABEL      : Counts
#EDSDET      : SD
##SPECIMEN   : FeS2 std
##D2STDCMP   : FeS2,(S:53.4528),(Fe:46.5472)
##DET_HASH   : 12273538-fd48-a23f-0a19-f1e6fa85caef
##CALIB_HASH : 6abaa72c-aa41-8738-0be9-f592914732f3
##WORKING    : 15.0 mm
##SAMPLE     : <BulkSample id="1">\n<mOrientation id="2">\n<double>0.0</double>\n<double>0.0</double>\n<double>-1.0</double>\n</mOrientation>\n</BulkSample>
##MULTISPEC  : 1.304
##DET_NAME   : EDAX All
##DET_MODE   : MediumLE
#SPECTRUM    :
146,
3687,
29727,
14055,
85943,
319596,
18823,
21003,
21697,
24843,
27761,
29747,
31666,
32726,
30759,
32789,
551609,
425707,
71649,
15733,
15932,
16786,
16441,
15983,
15639,
15188,
15281,
14821,
14615,
14372,
14005,
13609,
13720,
18749,
13661,
12317,
11983,
11742,
11610,
11143,
10977,
10483,
10058,
10037,
10826,
117946,
349099,
12462,
8881,
9937,
48001,
27949,
6767,
6884,
6646,
6221,
6117,
6046,
5913,
5817,
5414,
5498,
6631,
5447,
4963,
4692,
4588,
4677,
4351,
4211,
4163,
3955,
3819,
3765,
3626,
3612,
3368,
3310,
3273,
3066,
3014,
2853,
2637,
2693,
2545,
2465,
2479,
2188,
2193,
2155,
1996,
2067,
1994,
1684,
1726,
1583,
1550,
1549,
1428,
1302,
1297,
1199,
1150,
1068,
1041,
970,
955,
903,
820,
791,
751,
673,
656,
603,
603,
533,
486,
457,
423,
419,
421,
339,
328,
338,
307,
281,
247,
215,
202,
172,
190,
165,
159,
103,
114,
92,
69,
59,
58,
50,
46,
28,
11,
3,
2,
4,
1,
4,
4,
4,
4,
4,
1,
2,
5,
1,
3,
3,
1,
1,
2,
0,
1,
4,
2,
1,
5,
0,
1,
2,
1,
2,
1,
0,
1,
0,
1,
1,
1,
1,
0,
1,
0,
0,
1,
0,
0,
1,
1,
0,
0,
0,
0,
0,
0,
1,
0,
0,
0,
0,
0,
0,
0,
1,
0,
0,
0,
0,
0,
0,
0,
1,
0,
0,
0,
0,
0,
0,
0,
0,
0,
0,
0,
0,
0,
0,
0,
0,
0,
0,
0,
0,
0,
0,
0,
0,
0,
0,
0,
0,
0,
0,
0,
0,
0,
0,
0,
0,
0,
0,
0,
0,
0,
0,
0,
0,
0,
0,
0,
0,
0,
0,
0,
0,
0,
0,
0,
0,
0,
0,
0,
0,
0,
0,
0,
0,
0,
0,
0,
0,
0,
0,
0,
0,
0,
0,
0,
0,
0,
0,
0,
0,
0,
0,
#ENDOFDATA   :