File: N132962/Standards/20 keV/GaAs std.msa
#FORMAT      : EMSA/MAS Spectral Data File
#VERSION     : 1.0
#TITLE       : GaAs std
#DATE        : 21-FEB-2025
#TIME        : 09:57
#OWNER       : Unknown
#NPOINTS     : 4096
#NCOLUMNS    : 1
#XUNITS      : eV
#YUNITS      : counts
#DATATYPE    : Y
#XPERCHAN    : 9.99778
#OFFSET      : 1.69135
#BEAMKV      : 20
#SIGNALTYPE  : EDS
#ELEVANGLE   : 35
#AZIMANGLE   : 0
#LIVETIME    : 957.858
#REALTIME    : 1055.39
#PROBECUR    : 1.05806
#TAUWIND     : 0
#TDEADLYR    : 0
#TACTLYR     : 0.045
#TALWIND     : 0.025
#CHOFFSET    : 0.0
#XLABEL      : Energy (eV)
#YLABEL      : Counts
#EDSDET      : SD
##SPECIMEN   : GaAs std
##D2STDCMP   : GaAs,(Ga:48.203),(As:51.797)
##DET_HASH   : 12273538-fd48-a23f-0a19-f1e6fa85caef
##CALIB_HASH : 6abaa72c-aa41-8738-0be9-f592914732f3
##WORKING    : 15.0 mm
##SAMPLE     : <BulkSample id="1">\n<mOrientation id="2">\n<double>0.0</double>\n<double>0.0</double>\n<double>-1.0</double>\n</mOrientation>\n</BulkSample>
##MULTISPEC  : 0.803038
##DET_NAME   : EDAX All
##DET_MODE   : MediumLE
#SPECTRUM    :
102,
1072,
22929,
17865,
28153,
38654,
48249,
126945,
1187728,
484182,
35029,
15130,
15843,
17621,
17056,
18203,
21077,
21814,
20089,
19804,
19835,
19936,
19977,
19380,
19400,
19170,
18717,
18476,
17659,
17710,
17080,
16841,
16603,
16184,
15445,
15225,
14787,
14179,
14234,
14237,
12974,
12985,
12571,
12251,
11710,
12429,
13794,
10898,
10562,
10273,
10358,
9751,
9375,
10045,
9369,
8644,
8555,
8179,
7994,
7848,
7595,
7478,
7303,
7153,
7099,
28774,
168489,
24951,
6297,
5891,
5776,
5860,
7134,
24833,
20412,
81660,
28246,
4622,
4173,
4063,
3985,
3851,
4113,
9107,
12852,
4308,
2997,
2892,
2752,
2659,
2572,
2564,
2482,
2301,
2218,
2147,
1996,
1949,
1871,
1728,
1740,
1607,
1541,
1566,
1453,
1466,
1300,
1213,
1187,
1134,
1058,
1050,
975,
867,
840,
805,
697,
738,
666,
601,
550,
570,
508,
455,
442,
426,
405,
354,
338,
295,
289,
257,
264,
199,
198,
165,
123,
114,
119,
73,
69,
83,
51,
21,
7,
10,
12,
8,
15,
12,
32,
19,
6,
8,
10,
6,
10,
3,
8,
8,
4,
4,
2,
10,
6,
4,
3,
3,
4,
4,
0,
4,
4,
1,
2,
8,
5,
6,
7,
4,
3,
2,
3,
1,
0,
2,
4,
3,
2,
2,
1,
2,
0,
1,
3,
3,
2,
1,
0,
0,
3,
0,
0,
1,
0,
0,
0,
0,
0,
0,
0,
1,
0,
0,
0,
0,
0,
0,
0,
0,
0,
0,
0,
0,
0,
0,
0,
0,
0,
0,
0,
0,
0,
0,
0,
0,
0,
0,
1,
0,
1,
0,
0,
0,
0,
0,
0,
0,
0,
0,
2,
0,
0,
0,
0,
0,
0,
0,
0,
0,
0,
0,
0,
0,
0,
0,
0,
0,
0,
0,
0,
0,
0,
0,
0,
0,
0,
0,
0,
0,
0,
0,
0,
0,
0,
0,
0,
0,
0,
0,
0,
0,
0,
0,
#ENDOFDATA   :