File: N132962/Standards/20 keV/GaP std.msa
#FORMAT      : EMSA/MAS Spectral Data File
#VERSION     : 1.0
#TITLE       : GaP std
#DATE        : 24-FEB-2025
#TIME        : 10:20
#OWNER       : Unknown
#NPOINTS     : 4096
#NCOLUMNS    : 1
#XUNITS      : eV
#YUNITS      : counts
#DATATYPE    : Y
#XPERCHAN    : 9.99778
#OFFSET      : 1.69135
#BEAMKV      : 20
#SIGNALTYPE  : EDS
#ELEVANGLE   : 35
#AZIMANGLE   : 0
#LIVETIME    : 1199.04
#REALTIME    : 1321.15
#PROBECUR    : 1.03204
#TAUWIND     : 0
#TDEADLYR    : 0
#TACTLYR     : 0.045
#TALWIND     : 0.025
#CHOFFSET    : 0.0
#XLABEL      : Energy (eV)
#YLABEL      : Counts
#EDSDET      : SD
##SPECIMEN   : GaP std
##D2STDCMP   : GaP,(P:30.7594),(Ga:69.2406),5.0
##DET_HASH   : 12273538-fd48-a23f-0a19-f1e6fa85caef
##CALIB_HASH : 6abaa72c-aa41-8738-0be9-f592914732f3
##WORKING    : 15.0 mm
##SAMPLE     : <BulkSample id="1">\n<mOrientation id="2">\n<double>0.0</double>\n<double>0.0</double>\n<double>-1.0</double>\n</mOrientation>\n</BulkSample>
##MULTISPEC  : 1.10452
##DET_NAME   : EDAX All
##DET_MODE   : MediumLE
#SPECTRUM    :
151,
1498,
52396,
18151,
28394,
39005,
53670,
187936,
1831877,
19705,
18662,
21006,
24378,
27919,
377313,
114284,
24614,
18806,
19460,
19838,
19899,
20071,
23108,
20199,
19169,
19005,
18583,
18427,
18115,
18207,
17003,
16666,
16087,
15708,
15550,
15007,
14415,
14187,
13889,
13342,
13066,
12550,
12402,
11944,
11820,
11558,
11821,
10800,
10414,
10077,
10002,
9598,
9063,
9843,
8977,
8379,
8320,
8242,
7918,
7572,
7361,
7219,
7109,
7117,
7328,
39621,
243905,
33179,
6112,
5719,
5589,
5587,
7371,
33262,
17321,
4583,
4054,
3887,
3803,
3758,
3920,
3788,
3516,
3245,
3097,
3110,
2908,
2852,
2709,
2627,
2479,
2418,
2351,
2274,
2188,
2096,
1947,
1863,
1827,
1705,
1633,
1622,
1504,
1377,
1317,
1285,
1226,
1193,
1112,
1037,
989,
894,
912,
780,
749,
750,
659,
653,
604,
543,
506,
548,
442,
430,
420,
393,
335,
261,
272,
309,
268,
256,
271,
227,
159,
153,
114,
122,
86,
92,
58,
40,
38,
10,
14,
6,
4,
7,
3,
8,
5,
4,
4,
6,
8,
2,
4,
4,
5,
3,
1,
0,
1,
7,
2,
1,
2,
1,
3,
1,
1,
0,
3,
3,
2,
2,
1,
2,
1,
3,
1,
2,
1,
1,
1,
1,
0,
2,
2,
2,
1,
0,
1,
0,
2,
0,
0,
0,
0,
0,
0,
0,
2,
0,
1,
0,
0,
0,
0,
0,
0,
0,
0,
0,
1,
0,
0,
0,
0,
0,
0,
0,
0,
0,
0,
0,
0,
0,
0,
0,
0,
0,
0,
0,
0,
0,
0,
0,
0,
0,
0,
0,
0,
0,
0,
0,
0,
0,
0,
0,
0,
0,
0,
0,
0,
0,
0,
0,
0,
0,
0,
0,
0,
0,
0,
0,
0,
0,
0,
0,
0,
0,
0,
0,
1,
0,
0,
0,
0,
0,
0,
0,
0,
0,
0,
0,
0,
0,
0,
0,
0,
0,
0,
0,
#ENDOFDATA   :