File: N132962/Standards/20 keV/Gd std.msa
#FORMAT      : EMSA/MAS Spectral Data File
#VERSION     : 1.0
#TITLE       : Gd std
#DATE        : 20-FEB-2025
#TIME        : 13:14
#OWNER       : Unknown
#NPOINTS     : 4096
#NCOLUMNS    : 1
#XUNITS      : eV
#YUNITS      : counts
#DATATYPE    : Y
#XPERCHAN    : 9.99778
#OFFSET      : 1.69135
#BEAMKV      : 20
#SIGNALTYPE  : EDS
#ELEVANGLE   : 35
#AZIMANGLE   : 0
#LIVETIME    : 959.989
#REALTIME    : 1062.46
#PROBECUR    : 1.04644
#TAUWIND     : 0
#TDEADLYR    : 0
#TACTLYR     : 0.045
#TALWIND     : 0.025
#CHOFFSET    : 0.0
#XLABEL      : Energy (eV)
#YLABEL      : Counts
#EDSDET      : SD
##SPECIMEN   : Gd std
##D2STDCMP   : Gd,(Gd:100.0),5.0
##DET_HASH   : 12273538-fd48-a23f-0a19-f1e6fa85caef
##CALIB_HASH : 6abaa72c-aa41-8738-0be9-f592914732f3
##WORKING    : 15.0 mm
##SAMPLE     : <BulkSample id="1">\n<mOrientation id="2">\n<double>0.0</double>\n<double>0.0</double>\n<double>-1.0</double>\n</mOrientation>\n</BulkSample>
##MULTISPEC  : 17.1922
##DET_NAME   : EDAX All
##DET_MODE   : MediumLE
#SPECTRUM    :
114,
2241,
45224,
34787,
61695,
58386,
79737,
77317,
111505,
79872,
40988,
32318,
23844,
24226,
21923,
23836,
24358,
25713,
26208,
27018,
27044,
27728,
27604,
27713,
27488,
27629,
27424,
27128,
26595,
26347,
26265,
26897,
25485,
24989,
24279,
24233,
23913,
23269,
35466,
26932,
21932,
21602,
28736,
372558,
94950,
20903,
22210,
38601,
206083,
56060,
40254,
71221,
16753,
14832,
15270,
26542,
29325,
16130,
20425,
12891,
12354,
11103,
10627,
10576,
10321,
10265,
9766,
9698,
9793,
9386,
9169,
9058,
8942,
8614,
8454,
8106,
7752,
7708,
7669,
7443,
7024,
7075,
6697,
6470,
6281,
6093,
6145,
5856,
5578,
5293,
5165,
5263,
4942,
4634,
4584,
4365,
4098,
3966,
3872,
3767,
3543,
3371,
3185,
3077,
2947,
2813,
2699,
2569,
2498,
2342,
2193,
2120,
1980,
1888,
1811,
1768,
1677,
1537,
1389,
1321,
1350,
1256,
1130,
1087,
1060,
989,
916,
750,
762,
702,
663,
553,
540,
463,
411,
372,
347,
301,
250,
209,
150,
105,
65,
31,
23,
27,
22,
24,
15,
22,
18,
20,
13,
20,
11,
24,
12,
14,
9,
10,
13,
21,
12,
13,
10,
10,
5,
12,
7,
4,
6,
6,
9,
12,
7,
2,
9,
7,
8,
8,
10,
6,
9,
4,
11,
6,
3,
6,
3,
4,
4,
2,
3,
2,
0,
1,
2,
3,
1,
2,
0,
3,
1,
1,
1,
1,
0,
1,
1,
2,
0,
1,
0,
0,
0,
0,
0,
2,
0,
1,
0,
1,
1,
0,
0,
0,
0,
0,
0,
0,
0,
0,
0,
0,
1,
0,
0,
0,
0,
0,
1,
0,
0,
0,
0,
0,
0,
0,
0,
0,
0,
1,
0,
0,
0,
0,
0,
0,
0,
0,
0,
0,
0,
0,
0,
0,
0,
0,
0,
0,
0,
0,
0,
0,
0,
0,
0,
0,
0,
0,
0,
0,
0,
0,
0,
0,
0,
0,
0,
0,
0,
0,
0,
0,
#ENDOFDATA   :