File: N132962/Standards/20 keV/Ge std.msa
#FORMAT      : EMSA/MAS Spectral Data File
#VERSION     : 1.0
#TITLE       : Ge std
#DATE        : 21-FEB-2025
#TIME        : 09:21
#OWNER       : Unknown
#NPOINTS     : 4096
#NCOLUMNS    : 1
#XUNITS      : eV
#YUNITS      : counts
#DATATYPE    : Y
#XPERCHAN    : 9.99778
#OFFSET      : 1.69135
#BEAMKV      : 20
#SIGNALTYPE  : EDS
#ELEVANGLE   : 35
#AZIMANGLE   : 0
#LIVETIME    : 954.361
#REALTIME    : 1068.4
#PROBECUR    : 1.05789
#TAUWIND     : 0
#TDEADLYR    : 0
#TACTLYR     : 0.045
#TALWIND     : 0.025
#CHOFFSET    : 0.0
#XLABEL      : Energy (eV)
#YLABEL      : Counts
#EDSDET      : SD
##SPECIMEN   : Ge std
##D2STDCMP   : Ge,(Ge:100.0),5.0
##DET_HASH   : 12273538-fd48-a23f-0a19-f1e6fa85caef
##CALIB_HASH : 6abaa72c-aa41-8738-0be9-f592914732f3
##WORKING    : 15.0 mm
##SAMPLE     : <BulkSample id="1">\n<mOrientation id="2">\n<double>0.0</double>\n<double>0.0</double>\n<double>-1.0</double>\n</mOrientation>\n</BulkSample>
##MULTISPEC  : 1.49849
##DET_NAME   : EDAX All
##DET_MODE   : MediumLE
#SPECTRUM    :
104,
1137,
23612,
17159,
28149,
37853,
45736,
88176,
421517,
494269,
13388,
13744,
15690,
17313,
16301,
17408,
20005,
30928,
19197,
19202,
19293,
19597,
19534,
19177,
19231,
18739,
18713,
17994,
17570,
17366,
16896,
16695,
16141,
15915,
15284,
15010,
14700,
14231,
14036,
13950,
13225,
12821,
12375,
12076,
11640,
11935,
13736,
10668,
10561,
10244,
10175,
9730,
9349,
9741,
8915,
8680,
8346,
8203,
8071,
7737,
7510,
7362,
7078,
6725,
6727,
6594,
6293,
6243,
6334,
9635,
143486,
143717,
8564,
5220,
5049,
4795,
4928,
6051,
27753,
21342,
4628,
3623,
3345,
3149,
3197,
3108,
3041,
3090,
2849,
2678,
2579,
2399,
2368,
2375,
2201,
2185,
2038,
1930,
1883,
1852,
1672,
1587,
1529,
1545,
1404,
1368,
1255,
1258,
1235,
1149,
1048,
951,
981,
903,
806,
803,
753,
690,
672,
608,
617,
582,
533,
487,
465,
401,
360,
368,
316,
276,
273,
257,
236,
204,
172,
156,
153,
103,
82,
72,
80,
143,
82,
17,
13,
16,
14,
14,
23,
34,
19,
10,
4,
7,
6,
6,
5,
9,
10,
5,
7,
6,
8,
4,
4,
2,
5,
9,
3,
3,
5,
1,
1,
3,
3,
4,
4,
5,
3,
2,
2,
2,
2,
4,
2,
4,
0,
1,
1,
2,
3,
4,
0,
2,
1,
1,
2,
0,
0,
0,
0,
0,
1,
0,
0,
0,
0,
0,
0,
0,
0,
0,
1,
0,
0,
0,
0,
0,
0,
0,
0,
0,
0,
0,
0,
0,
0,
0,
0,
0,
0,
0,
0,
0,
0,
0,
1,
0,
0,
1,
0,
0,
0,
0,
0,
0,
0,
0,
0,
0,
0,
0,
0,
0,
0,
0,
0,
0,
0,
0,
0,
0,
0,
0,
0,
0,
0,
0,
0,
0,
0,
0,
0,
0,
0,
0,
0,
0,
0,
0,
0,
0,
0,
0,
0,
0,
0,
0,
0,
0,
0,
0,
0,
0,
#ENDOFDATA   :