File: N132962/Standards/20 keV/Hf std.msa
#FORMAT      : EMSA/MAS Spectral Data File
#VERSION     : 1.0
#TITLE       : Hf std
#DATE        : 20-FEB-2025
#TIME        : 13:44
#OWNER       : Unknown
#NPOINTS     : 4096
#NCOLUMNS    : 1
#XUNITS      : eV
#YUNITS      : counts
#DATATYPE    : Y
#XPERCHAN    : 9.99778
#OFFSET      : 1.69135
#BEAMKV      : 20
#SIGNALTYPE  : EDS
#ELEVANGLE   : 35
#AZIMANGLE   : 0
#LIVETIME    : 960.454
#REALTIME    : 1092.46
#PROBECUR    : 1.04693
#TAUWIND     : 0
#TDEADLYR    : 0
#TACTLYR     : 0.045
#TALWIND     : 0.025
#CHOFFSET    : 0.0
#XLABEL      : Energy (eV)
#YLABEL      : Counts
#EDSDET      : SD
##SPECIMEN   : Hf std
##D2STDCMP   : Hf,(Hf:100.0),5.0
##DET_HASH   : 12273538-fd48-a23f-0a19-f1e6fa85caef
##CALIB_HASH : 6abaa72c-aa41-8738-0be9-f592914732f3
##WORKING    : 15.0 mm
##SAMPLE     : <BulkSample id="1">\n<mOrientation id="2">\n<double>0.0</double>\n<double>0.0</double>\n<double>-1.0</double>\n</mOrientation>\n</BulkSample>
##MULTISPEC  : 2.77254
##DET_NAME   : EDAX All
##DET_MODE   : MediumLE
#SPECTRUM    :
114,
3110,
36957,
23589,
35564,
39041,
43699,
47905,
52817,
150826,
61669,
108989,
1294546,
36112,
31527,
42434,
25775,
22754,
23613,
23389,
24182,
25332,
25337,
26954,
28592,
26076,
26104,
26134,
26013,
26013,
25371,
25493,
25329,
24904,
24855,
24531,
24274,
23577,
23912,
23627,
22403,
22031,
21568,
21310,
21091,
21443,
24077,
19455,
19108,
21689,
27321,
19159,
18098,
18642,
18084,
21767,
183373,
106255,
19133,
15707,
14608,
14325,
14274,
20044,
79426,
62411,
32914,
45908,
15265,
11627,
10312,
10259,
10029,
10300,
11235,
22515,
12277,
11714,
11726,
8467,
8575,
7758,
7092,
6914,
6917,
6638,
6502,
6366,
6041,
5874,
5665,
5465,
5228,
5226,
5017,
4689,
4535,
4282,
4184,
3984,
3924,
3774,
3667,
3457,
3297,
3116,
2972,
2907,
2794,
2653,
2511,
2459,
2510,
2393,
2082,
2026,
1909,
1771,
1735,
1616,
1515,
1544,
1458,
1334,
1234,
1150,
1071,
944,
936,
854,
790,
748,
650,
610,
526,
444,
427,
398,
274,
251,
202,
140,
84,
58,
30,
33,
29,
31,
28,
21,
23,
28,
26,
15,
21,
23,
17,
19,
13,
15,
15,
10,
16,
14,
10,
11,
14,
8,
6,
9,
21,
10,
9,
9,
3,
7,
17,
9,
11,
10,
8,
8,
13,
9,
6,
5,
4,
1,
4,
5,
5,
5,
5,
3,
2,
3,
3,
3,
2,
1,
4,
2,
2,
3,
1,
2,
2,
2,
0,
3,
0,
1,
2,
2,
0,
0,
1,
1,
0,
1,
2,
0,
1,
0,
0,
0,
2,
0,
0,
0,
0,
0,
0,
1,
0,
0,
0,
0,
0,
0,
1,
0,
0,
0,
0,
1,
0,
0,
0,
0,
0,
0,
0,
0,
0,
0,
0,
0,
0,
0,
1,
0,
1,
0,
0,
0,
0,
0,
0,
0,
0,
0,
0,
0,
0,
0,
0,
0,
0,
0,
0,
0,
0,
0,
0,
0,
0,
0,
0,
0,
0,
0,
0,
0,
#ENDOFDATA   :