File: N132962/Standards/20 keV/HgTe std.msa
#FORMAT      : EMSA/MAS Spectral Data File
#VERSION     : 1.0
#TITLE       : HgTe std
#DATE        : 24-FEB-2025
#TIME        : 10:34
#OWNER       : Unknown
#NPOINTS     : 4096
#NCOLUMNS    : 1
#XUNITS      : eV
#YUNITS      : counts
#DATATYPE    : Y
#XPERCHAN    : 9.99778
#OFFSET      : 1.69135
#BEAMKV      : 20
#SIGNALTYPE  : EDS
#ELEVANGLE   : 35
#AZIMANGLE   : 0
#LIVETIME    : 719.706
#REALTIME    : 799.5219
#PROBECUR    : 1.03242
#TAUWIND     : 0
#TDEADLYR    : 0
#TACTLYR     : 0.045
#TALWIND     : 0.025
#CHOFFSET    : 0.0
#XLABEL      : Energy (eV)
#YLABEL      : Counts
#EDSDET      : SD
##SPECIMEN   : HgTe std
##D2STDCMP   : HgTe,(Te:38.8799),(Hg:61.1201)
##DET_HASH   : 12273538-fd48-a23f-0a19-f1e6fa85caef
##CALIB_HASH : 6abaa72c-aa41-8738-0be9-f592914732f3
##WORKING    : 15.0 mm
##SAMPLE     : <BulkSample id="1">\n<mOrientation id="2">\n<double>0.0</double>\n<double>0.0</double>\n<double>-1.0</double>\n</mOrientation>\n</BulkSample>
##MULTISPEC  : 0.967238
##DET_NAME   : EDAX All
##DET_MODE   : MediumLE
#SPECTRUM    :
79,
4838,
45217,
39174,
27840,
18426,
22592,
23052,
22558,
24998,
27495,
29529,
51174,
34992,
31680,
71705,
410573,
39327,
33653,
19676,
21829,
22195,
18926,
19269,
24562,
19636,
26890,
197060,
27301,
104615,
28821,
39616,
19739,
23481,
18171,
17192,
14886,
14533,
14681,
14591,
14213,
13945,
13808,
13875,
13396,
13786,
14389,
12766,
12682,
12364,
12277,
11784,
11471,
12090,
11556,
10920,
10796,
10794,
10443,
10081,
9810,
9746,
11530,
9916,
9042,
8674,
8705,
8373,
8214,
8231,
11607,
45712,
23204,
7579,
7033,
6729,
6947,
6400,
5947,
5930,
5800,
5642,
6471,
6492,
14437,
18254,
7709,
5296,
5045,
4342,
4098,
3869,
3780,
3651,
3538,
3390,
3277,
3154,
3743,
4317,
2867,
3080,
2896,
2460,
2270,
2186,
2153,
1915,
1838,
1853,
1724,
1674,
1664,
1513,
1409,
1409,
1230,
1243,
1125,
1122,
972,
967,
934,
935,
791,
741,
711,
669,
602,
595,
503,
471,
448,
342,
351,
301,
286,
266,
198,
150,
126,
83,
60,
27,
16,
14,
19,
11,
18,
14,
14,
11,
19,
11,
12,
11,
20,
20,
10,
10,
6,
8,
7,
9,
5,
2,
5,
2,
5,
2,
7,
1,
8,
4,
4,
5,
8,
5,
4,
6,
4,
5,
1,
4,
3,
4,
3,
4,
4,
3,
2,
3,
3,
1,
1,
4,
0,
2,
2,
3,
3,
1,
2,
1,
1,
0,
1,
2,
0,
1,
0,
0,
0,
1,
0,
0,
1,
1,
0,
0,
0,
0,
0,
0,
1,
0,
1,
0,
0,
0,
1,
0,
0,
0,
1,
0,
0,
1,
0,
0,
0,
0,
0,
0,
0,
0,
0,
0,
0,
0,
0,
0,
0,
0,
0,
0,
0,
0,
0,
0,
0,
0,
0,
0,
0,
0,
0,
0,
0,
0,
0,
0,
0,
0,
0,
0,
0,
0,
0,
0,
0,
0,
0,
0,
0,
0,
0,
0,
0,
0,
0,
0,
0,
0,
#ENDOFDATA   :