File: N132962/Standards/20 keV/Ho std.msa
#FORMAT      : EMSA/MAS Spectral Data File
#VERSION     : 1.0
#TITLE       : Ho std
#DATE        : 20-FEB-2025
#TIME        : 13:32
#OWNER       : Unknown
#NPOINTS     : 4096
#NCOLUMNS    : 1
#XUNITS      : eV
#YUNITS      : counts
#DATATYPE    : Y
#XPERCHAN    : 9.99778
#OFFSET      : 1.69135
#BEAMKV      : 20
#SIGNALTYPE  : EDS
#ELEVANGLE   : 35
#AZIMANGLE   : 0
#LIVETIME    : 719.755
#REALTIME    : 797.171
#PROBECUR    : 1.04693
#TAUWIND     : 0
#TDEADLYR    : 0
#TACTLYR     : 0.045
#TALWIND     : 0.025
#CHOFFSET    : 0.0
#XLABEL      : Energy (eV)
#YLABEL      : Counts
#EDSDET      : SD
##SPECIMEN   : Ho std
##D2STDCMP   : Ho,(Ho:100.0),5.0
##DET_HASH   : 12273538-fd48-a23f-0a19-f1e6fa85caef
##CALIB_HASH : 6abaa72c-aa41-8738-0be9-f592914732f3
##WORKING    : 15.0 mm
##SAMPLE     : <BulkSample id="1">\n<mOrientation id="2">\n<double>0.0</double>\n<double>0.0</double>\n<double>-1.0</double>\n</mOrientation>\n</BulkSample>
##MULTISPEC  : 1.04099
##DET_NAME   : EDAX All
##DET_MODE   : MediumLE
#SPECTRUM    :
99,
1974,
37456,
21600,
37468,
42748,
37456,
66762,
53652,
62551,
222329,
28585,
21474,
20659,
15944,
16939,
17335,
18150,
18496,
19611,
19926,
20171,
20098,
20237,
20630,
20500,
20574,
19977,
20168,
19714,
19371,
19434,
19148,
18677,
18597,
18492,
18285,
17549,
17324,
17383,
16529,
16694,
22697,
20146,
15859,
15926,
17791,
39203,
268695,
29344,
14096,
13511,
13362,
47859,
108821,
28247,
39347,
32753,
10960,
9606,
9627,
10014,
20261,
16543,
10472,
13134,
8336,
8289,
7506,
7139,
7011,
6894,
6863,
6694,
6493,
6205,
6138,
5963,
5928,
5780,
5503,
5298,
5153,
5186,
4797,
4817,
4612,
4415,
4254,
4173,
4122,
3804,
3764,
3667,
3388,
3438,
3390,
3082,
2974,
2811,
2833,
2757,
2708,
2449,
2366,
2354,
2191,
2069,
1989,
1848,
1898,
1733,
1595,
1538,
1428,
1387,
1250,
1221,
1139,
1133,
1066,
951,
915,
815,
809,
727,
722,
708,
599,
535,
519,
427,
460,
379,
317,
306,
268,
226,
196,
154,
125,
89,
33,
19,
17,
24,
21,
24,
27,
20,
20,
9,
15,
9,
17,
11,
12,
13,
13,
10,
10,
10,
5,
6,
4,
6,
8,
12,
7,
5,
9,
5,
4,
6,
1,
3,
7,
3,
5,
11,
6,
2,
5,
7,
3,
3,
6,
0,
1,
5,
0,
1,
2,
2,
3,
0,
0,
1,
3,
5,
1,
1,
0,
0,
0,
1,
0,
1,
1,
0,
2,
1,
1,
0,
0,
0,
1,
0,
0,
1,
1,
0,
0,
0,
0,
0,
0,
1,
0,
0,
0,
1,
0,
0,
0,
2,
0,
0,
0,
0,
0,
0,
0,
0,
0,
0,
0,
0,
0,
1,
0,
0,
0,
0,
0,
0,
0,
0,
0,
0,
0,
0,
0,
0,
0,
0,
0,
0,
0,
0,
0,
0,
0,
0,
0,
0,
0,
0,
0,
0,
0,
0,
0,
0,
0,
0,
0,
0,
0,
0,
0,
0,
0,
0,
#ENDOFDATA   :