File: N132962/Standards/20 keV/InAs std.msa
#FORMAT      : EMSA/MAS Spectral Data File
#VERSION     : 1.0
#TITLE       : InAs std
#DATE        : 24-FEB-2025
#TIME        : 10:26
#OWNER       : Unknown
#NPOINTS     : 4096
#NCOLUMNS    : 1
#XUNITS      : eV
#YUNITS      : counts
#DATATYPE    : Y
#XPERCHAN    : 9.99778
#OFFSET      : 1.69135
#BEAMKV      : 20
#SIGNALTYPE  : EDS
#ELEVANGLE   : 35
#AZIMANGLE   : 0
#LIVETIME    : 1199.32
#REALTIME    : 1312.72
#PROBECUR    : 1.03242
#TAUWIND     : 0
#TDEADLYR    : 0
#TACTLYR     : 0.045
#TALWIND     : 0.025
#CHOFFSET    : 0.0
#XLABEL      : Energy (eV)
#YLABEL      : Counts
#EDSDET      : SD
##SPECIMEN   : InAs std
##D2STDCMP   : InAs,(As:39.4865),(In:60.5135),5.0
##DET_HASH   : 12273538-fd48-a23f-0a19-f1e6fa85caef
##CALIB_HASH : 6abaa72c-aa41-8738-0be9-f592914732f3
##WORKING    : 15.0 mm
##SAMPLE     : <BulkSample id="1">\n<mOrientation id="2">\n<double>0.0</double>\n<double>0.0</double>\n<double>-1.0</double>\n</mOrientation>\n</BulkSample>
##MULTISPEC  : 1.18858
##DET_NAME   : EDAX All
##DET_MODE   : MediumLE
#SPECTRUM    :
148,
2152,
53577,
36700,
22881,
27456,
27884,
33849,
65871,
554597,
52609,
37154,
31455,
33378,
31091,
31352,
31974,
32947,
33555,
33263,
34628,
51997,
40417,
250915,
232575,
330740,
78174,
63175,
50866,
23449,
28300,
19970,
19864,
20478,
19904,
19454,
19115,
18842,
18550,
18257,
18156,
17725,
17273,
16954,
16706,
16852,
17376,
16149,
15623,
15077,
14818,
14245,
13750,
14461,
13500,
12963,
12501,
12540,
12191,
11767,
11311,
11080,
10815,
10800,
10087,
10151,
9741,
9513,
9310,
8935,
8829,
8772,
8262,
8168,
15512,
89255,
31153,
7460,
6910,
6724,
6481,
6462,
6193,
11261,
15508,
6404,
4999,
4742,
4659,
4389,
4225,
4168,
4011,
3959,
3658,
3657,
3432,
3292,
3149,
3098,
2991,
2815,
2676,
2541,
2337,
2285,
2254,
2106,
1942,
1895,
1782,
1678,
1597,
1458,
1505,
1373,
1264,
1248,
1147,
1137,
990,
949,
867,
839,
825,
720,
682,
613,
589,
510,
479,
408,
414,
355,
317,
276,
236,
206,
169,
173,
121,
79,
42,
28,
11,
10,
12,
20,
18,
9,
25,
25,
5,
9,
6,
9,
5,
6,
10,
8,
7,
7,
7,
11,
6,
4,
2,
5,
4,
4,
2,
1,
3,
2,
3,
2,
3,
4,
7,
5,
0,
2,
3,
3,
2,
2,
5,
4,
2,
2,
4,
0,
2,
2,
3,
0,
4,
0,
1,
0,
1,
0,
1,
0,
1,
0,
1,
1,
1,
2,
0,
1,
1,
1,
1,
1,
0,
1,
0,
0,
0,
1,
0,
0,
0,
0,
0,
0,
0,
0,
0,
0,
0,
0,
0,
0,
0,
0,
0,
0,
0,
0,
0,
0,
0,
0,
0,
0,
0,
0,
0,
0,
0,
0,
0,
0,
0,
0,
0,
0,
0,
0,
0,
0,
0,
0,
0,
0,
0,
0,
0,
0,
0,
0,
0,
0,
0,
0,
0,
0,
0,
0,
0,
0,
0,
0,
0,
0,
0,
0,
0,
0,
0,
0,
#ENDOFDATA   :