File: N132962/Standards/20 keV/InP std.msa
#FORMAT      : EMSA/MAS Spectral Data File
#VERSION     : 1.0
#TITLE       : G588 InP[...+G588 InP[...+G588 InP[...+G588 InP[...+G588 InP[...
#NPOINTS     : 4096
#NCOLUMNS    : 1
#XUNITS      : eV
#YUNITS      : counts
#DATATYPE    : Y
#SIGNALTYPE  : EDS
#XLABEL      : Energy (eV)
#YLABEL      : Counts
#XPERCHAN -eV: 9.99778
#OFFSET   -eV: 1.69135
#CHOFFSET    : 0
#OWNER       : Unknown
#ELEVANGLE   : 35
#BEAMKV   -kV: 20
#LIVETIME  -s: 1199.25
#REALTIME  -s: 1322.29
#PROBECUR -nA: 1.04548
##WORKING -mm: 15
##D2STDCMP   : InP,(P:21.2452),(In:78.7548),5.000
#SPECTRUM    :
132,
2825,
62512,
47757,
22082,
26833,
24021,
26115,
29139,
33436,
37741,
52814,
45502,
48772,
379322,
124578,
34549,
33252,
32970,
32657,
34719,
57672,
42931,
319783,
302996,
423056,
92654,
73332,
56345,
22229,
28477,
17887,
17788,
17890,
17616,
17676,
17470,
17700,
18633,
17824,
17048,
16565,
16094,
15953,
15584,
16011,
17825,
15578,
14423,
14531,
14254,
13644,
13276,
13612,
12851,
12121,
11878,
11496,
11493,
11209,
10639,
10503,
10129,
9932,
9689,
9459,
9317,
8973,
8703,
8768,
8341,
8083,
7825,
7617,
7350,
7127,
6732,
6527,
6478,
6389,
6237,
5939,
5857,
5512,
5428,
5182,
4871,
4737,
4464,
4458,
4291,
4064,
3969,
3691,
3756,
3465,
3392,
3122,
3133,
2920,
2872,
2645,
2623,
2464,
2225,
2231,
2092,
2003,
1985,
1828,
1708,
1597,
1570,
1492,
1352,
1330,
1303,
1178,
1094,
1104,
977,
895,
883,
794,
763,
663,
688,
610,
539,
544,
438,
433,
403,
369,
270,
248,
255,
215,
170,
115,
112,
78,
45,
16,
9,
18,
7,
15,
9,
7,
11,
7,
12,
2,
9,
10,
7,
3,
7,
5,
5,
5,
4,
4,
5,
4,
2,
2,
2,
1,
1,
4,
3,
4,
0,
0,
0,
2,
1,
3,
3,
1,
0,
0,
1,
0,
1,
2,
0,
0,
1,
2,
0,
2,
3,
2,
1,
1,
1,
0,
0,
2,
1,
0,
0,
2,
1,
0,
0,
1,
1,
0,
0,
0,
0,
0,
1,
0,
0,
0,
0,
0,
0,
0,
0,
0,
0,
0,
0,
0,
0,
0,
0,
0,
1,
0,
1,
0,
0,
0,
0,
0,
0,
2,
0,
0,
0,
0,
0,
0,
0,
0,
0,
0,
0,
0,
0,
0,
0,
0,
0,
0,
0,
0,
0,
0,
0,
0,
0,
0,
0,
0,
0,
0,
0,
0,
0,
0,
0,
0,
0,
0,
0,
0,
0,
0,
0,
0,
0,
0,
0,
0,
0,
0,
#ENDOFDATA   :