File: N132962/Standards/20 keV/Ir std.msa
#FORMAT      : EMSA/MAS Spectral Data File
#VERSION     : 1.0
#TITLE       : Ir std
#DATE        : 21-FEB-2025
#TIME        : 09:51
#OWNER       : Unknown
#NPOINTS     : 4096
#NCOLUMNS    : 1
#XUNITS      : eV
#YUNITS      : counts
#DATATYPE    : Y
#XPERCHAN    : 9.99778
#OFFSET      : 1.69135
#BEAMKV      : 20
#SIGNALTYPE  : EDS
#ELEVANGLE   : 35
#AZIMANGLE   : 0
#LIVETIME    : 1195.29
#REALTIME    : 1357.64
#PROBECUR    : 1.05803
#TAUWIND     : 0
#TDEADLYR    : 0
#TACTLYR     : 0.045
#TALWIND     : 0.025
#CHOFFSET    : 0.0
#XLABEL      : Energy (eV)
#YLABEL      : Counts
#EDSDET      : SD
##SPECIMEN   : Ir std
##D2STDCMP   : Ir,(Ir:100.0),5.0
##DET_HASH   : 12273538-fd48-a23f-0a19-f1e6fa85caef
##CALIB_HASH : 6abaa72c-aa41-8738-0be9-f592914732f3
##WORKING    : 15.0 mm
##SAMPLE     : <BulkSample id="1">\n<mOrientation id="2">\n<double>0.0</double>\n<double>0.0</double>\n<double>-1.0</double>\n</mOrientation>\n</BulkSample>
##MULTISPEC  : 1.52198
##DET_NAME   : EDAX All
##DET_MODE   : MediumLE
#SPECTRUM    :
143,
4779,
71556,
28647,
33566,
42278,
47416,
50780,
57004,
62249,
66979,
175479,
74035,
96783,
1398130,
420531,
66753,
29812,
34099,
33848,
29067,
29189,
29797,
29552,
29799,
30352,
31301,
30892,
33520,
34616,
31381,
31191,
30864,
31075,
30801,
30256,
30343,
29590,
29766,
30307,
28684,
27973,
27909,
27478,
26523,
27696,
30605,
25508,
24839,
24268,
24349,
23290,
22626,
24096,
22470,
21266,
21257,
26910,
24983,
20065,
19594,
18804,
18510,
18138,
22744,
137937,
122046,
18743,
16544,
17077,
15396,
14758,
14348,
13983,
14615,
21468,
52260,
52196,
49412,
17743,
14158,
10918,
9967,
9550,
9317,
9207,
9041,
8775,
8987,
15694,
11897,
8849,
9305,
7591,
6555,
6466,
6263,
5672,
5605,
5423,
5200,
5085,
4758,
4544,
4525,
4120,
4042,
3867,
3835,
3517,
3424,
3281,
3027,
3001,
2736,
2669,
2593,
2420,
2314,
2151,
2050,
1953,
1771,
1720,
1615,
1519,
1413,
1389,
1233,
1146,
1051,
1060,
940,
822,
740,
638,
561,
496,
429,
342,
281,
220,
165,
102,
61,
47,
39,
29,
40,
33,
31,
33,
39,
49,
41,
46,
26,
15,
28,
23,
30,
18,
21,
14,
13,
19,
17,
10,
18,
23,
9,
17,
14,
13,
13,
10,
17,
11,
14,
17,
18,
5,
13,
11,
13,
10,
10,
15,
11,
8,
7,
9,
13,
7,
5,
5,
5,
7,
4,
7,
3,
3,
1,
7,
2,
5,
4,
4,
1,
0,
1,
3,
1,
2,
3,
1,
0,
0,
0,
0,
1,
1,
2,
3,
0,
0,
2,
1,
0,
0,
1,
2,
0,
0,
0,
0,
0,
0,
1,
0,
0,
0,
0,
0,
0,
0,
0,
0,
0,
0,
0,
0,
0,
0,
0,
0,
0,
0,
0,
0,
0,
0,
0,
0,
0,
0,
0,
0,
0,
0,
0,
0,
0,
0,
0,
0,
0,
0,
0,
0,
0,
0,
0,
0,
0,
0,
0,
0,
0,
0,
0,
0,
0,
0,
#ENDOFDATA   :