File: N132962/Standards/20 keV/K227 std.msa
#FORMAT      : EMSA/MAS Spectral Data File
#VERSION     : 1.0
#TITLE       : K227 std
#DATE        : 20-FEB-2025
#TIME        : 13:56
#OWNER       : Unknown
#NPOINTS     : 4096
#NCOLUMNS    : 1
#XUNITS      : eV
#YUNITS      : counts
#DATATYPE    : Y
#XPERCHAN    : 9.99778
#OFFSET      : 1.69135
#BEAMKV      : 20
#SIGNALTYPE  : EDS
#ELEVANGLE   : 35
#AZIMANGLE   : 0
#LIVETIME    : 959.802
#REALTIME    : 1059.17
#PROBECUR    : 1.04693
#TAUWIND     : 0
#TDEADLYR    : 0
#TACTLYR     : 0.045
#TALWIND     : 0.025
#CHOFFSET    : 0.0
#XLABEL      : Energy (eV)
#YLABEL      : Counts
#EDSDET      : SD
##SPECIMEN   : K227 std
##D2STDCMP   : K227,(O:16.39),(Si:9.35),(Pb:74.27)
##DET_HASH   : 12273538-fd48-a23f-0a19-f1e6fa85caef
##CALIB_HASH : 6abaa72c-aa41-8738-0be9-f592914732f3
##WORKING    : 15.0 mm
##SAMPLE     : <BulkSample id="1">\n<mOrientation id="2">\n<double>0.0</double>\n<double>0.0</double>\n<double>-1.0</double>\n</mOrientation>\n</BulkSample>
##MULTISPEC  : 1.06492
##DET_NAME   : EDAX All
##DET_MODE   : MediumLE
#SPECTRUM    :
131,
2599,
45888,
24360,
87072,
32987,
27795,
28868,
32240,
35520,
38641,
41910,
143344,
129063,
35847,
37284,
77197,
643139,
106266,
49121,
20294,
22892,
28208,
21260,
19555,
20282,
19531,
20237,
19202,
19976,
19700,
18853,
18715,
18943,
19662,
18644,
18078,
17739,
17658,
17839,
17108,
16501,
16491,
16285,
15524,
16348,
18458,
14840,
14307,
13915,
13973,
13706,
13359,
13771,
12906,
12212,
11809,
11690,
11527,
11256,
10883,
10784,
10292,
10421,
10047,
10897,
11344,
9260,
9067,
8758,
8503,
8396,
8212,
7921,
12426,
48151,
26729,
7425,
6835,
6695,
6399,
6487,
5988,
5723,
5645,
5325,
5551,
5682,
5466,
7997,
21650,
9226,
5069,
4856,
3909,
3525,
3409,
3237,
3100,
3059,
2962,
2856,
2754,
2518,
2521,
3568,
3022,
2268,
2303,
2135,
1864,
1668,
1656,
1557,
1424,
1332,
1311,
1201,
1189,
1080,
1022,
997,
883,
915,
837,
764,
705,
641,
584,
517,
534,
442,
397,
378,
347,
273,
255,
224,
177,
164,
120,
65,
37,
20,
16,
19,
20,
17,
11,
9,
13,
18,
12,
9,
8,
9,
5,
11,
10,
8,
3,
6,
6,
9,
5,
10,
6,
6,
6,
4,
7,
7,
6,
3,
2,
6,
9,
1,
5,
4,
4,
2,
1,
3,
2,
0,
4,
4,
1,
3,
2,
3,
2,
2,
4,
1,
4,
3,
0,
1,
0,
1,
2,
0,
1,
1,
0,
1,
1,
0,
1,
0,
1,
1,
1,
2,
0,
0,
0,
0,
1,
1,
0,
0,
0,
0,
0,
0,
0,
0,
0,
1,
0,
1,
0,
0,
0,
0,
0,
0,
0,
0,
0,
0,
0,
0,
0,
0,
0,
0,
0,
0,
0,
0,
0,
0,
0,
0,
0,
0,
0,
0,
0,
0,
0,
0,
0,
0,
0,
0,
0,
0,
0,
0,
0,
0,
0,
0,
0,
0,
0,
0,
0,
0,
0,
0,
0,
0,
0,
0,
0,
0,
0,
0,
#ENDOFDATA   :