File: N132962/Standards/20 keV/KBr std.msa
#FORMAT      : EMSA/MAS Spectral Data File
#VERSION     : 1.0
#TITLE       : KBr std
#DATE        : 21-FEB-2025
#TIME        : 10:09
#OWNER       : Unknown
#NPOINTS     : 4096
#NCOLUMNS    : 1
#XUNITS      : eV
#YUNITS      : counts
#DATATYPE    : Y
#XPERCHAN    : 9.99778
#OFFSET      : 1.69135
#BEAMKV      : 20
#SIGNALTYPE  : EDS
#ELEVANGLE   : 35
#AZIMANGLE   : 0
#LIVETIME    : 720.404
#REALTIME    : 797.374
#PROBECUR    : 1.05806
#TAUWIND     : 0
#TDEADLYR    : 0
#TACTLYR     : 0.045
#TALWIND     : 0.025
#CHOFFSET    : 0.0
#XLABEL      : Energy (eV)
#YLABEL      : Counts
#EDSDET      : SD
##SPECIMEN   : KBr std
##D2STDCMP   : KBr,(K:32.8551),(Br:67.1449),5.0
##DET_HASH   : 12273538-fd48-a23f-0a19-f1e6fa85caef
##CALIB_HASH : 6abaa72c-aa41-8738-0be9-f592914732f3
##WORKING    : 15.0 mm
##SAMPLE     : <BulkSample id="1">\n<mOrientation id="2">\n<double>0.0</double>\n<double>0.0</double>\n<double>-1.0</double>\n</mOrientation>\n</BulkSample>
##MULTISPEC  : 29.3646
##DET_NAME   : EDAX All
##DET_MODE   : MediumLE
#SPECTRUM    :
84,
908,
24650,
7538,
12715,
17601,
22761,
24315,
27940,
59169,
121538,
646050,
15720,
14370,
12062,
13140,
13310,
13840,
14234,
14581,
14811,
16876,
15696,
71883,
309953,
23850,
44858,
10839,
10656,
10509,
10398,
10068,
10178,
10093,
11278,
10511,
9482,
9205,
8863,
8920,
8478,
8047,
8048,
7717,
7626,
7792,
8708,
7343,
6964,
6565,
6561,
6451,
6114,
6274,
5931,
5529,
5381,
5230,
5079,
5023,
4863,
4778,
4490,
4349,
4337,
4217,
4047,
3918,
3715,
3654,
3608,
3554,
3444,
3400,
3224,
3067,
3040,
2919,
2821,
2589,
2654,
2489,
2477,
2473,
10070,
38275,
9351,
2055,
1925,
1867,
1722,
1743,
1627,
1675,
3110,
6170,
2400,
1422,
1206,
1078,
1098,
1039,
983,
923,
960,
845,
785,
710,
729,
735,
692,
601,
568,
529,
532,
483,
476,
452,
357,
375,
341,
314,
325,
287,
265,
225,
210,
183,
178,
143,
139,
120,
122,
98,
88,
76,
46,
46,
25,
22,
15,
6,
7,
6,
5,
2,
7,
4,
5,
3,
2,
5,
5,
4,
2,
2,
3,
1,
3,
0,
2,
2,
1,
1,
2,
0,
1,
0,
2,
4,
6,
3,
3,
1,
0,
3,
0,
0,
0,
0,
2,
1,
0,
0,
0,
0,
1,
1,
2,
1,
0,
1,
2,
0,
1,
3,
2,
0,
0,
0,
0,
0,
1,
0,
0,
0,
0,
0,
0,
0,
0,
0,
1,
0,
0,
0,
0,
0,
0,
0,
0,
0,
0,
0,
0,
0,
0,
0,
0,
0,
0,
0,
0,
0,
0,
0,
0,
0,
0,
0,
0,
0,
0,
0,
0,
0,
0,
0,
0,
0,
0,
0,
0,
0,
0,
0,
0,
0,
0,
0,
0,
0,
0,
0,
0,
0,
0,
0,
0,
0,
0,
0,
0,
0,
0,
0,
0,
0,
0,
0,
0,
0,
0,
0,
0,
0,
0,
0,
0,
0,
0,
0,
0,
0,
#ENDOFDATA   :