File: N132962/Standards/20 keV/KCl std.msa
#FORMAT      : EMSA/MAS Spectral Data File
#VERSION     : 1.0
#TITLE       : KCl std
#DATE        : 11-SEP-2025
#TIME        : 14:21
#OWNER       : Unknown
#NPOINTS     : 4096
#NCOLUMNS    : 1
#XUNITS      : eV
#YUNITS      : counts
#DATATYPE    : Y
#XPERCHAN    : 9.99778
#OFFSET      : 1.69135
#BEAMKV      : 20
#SIGNALTYPE  : EDS
#ELEVANGLE   : 35
#AZIMANGLE   : 0
#LIVETIME    : 2154.47
#REALTIME    : 2409.83
#PROBECUR    : 1.22368
#TAUWIND     : 0
#TDEADLYR    : 0
#TACTLYR     : 0.045
#TALWIND     : 0.025
#CHOFFSET    : 0.0
#XLABEL      : Energy (eV)
#YLABEL      : Counts
#EDSDET      : SD
##SPECIMEN   : KCl std
##D2STDCMP   : KCl,(Cl:47.5531),(K:52.4469)
##DET_HASH   : 12273538-fd48-a23f-0a19-f1e6fa85caef
##CALIB_HASH : 6abaa72c-aa41-8738-0be9-f592914732f3
##WORKING    : 15.0 mm
##SAMPLE     : <BulkSample id="1">\n<mOrientation id="2">\n<double>0.0</double>\n<double>0.0</double>\n<double>-1.0</double>\n</mOrientation>\n</BulkSample>
##MULTISPEC  : 12.5743
##DET_NAME   : EDAX All
##DET_MODE   : MediumLE
#SPECTRUM    :
208,
23615,
115366,
16644,
32532,
34055,
81278,
53125,
60948,
64867,
69113,
96118,
76609,
75701,
61583,
60821,
61171,
61616,
321457,
2504461,
344561,
40418,
35729,
326653,
1508885,
85890,
191209,
21688,
22281,
21849,
22006,
21354,
21351,
20903,
20718,
20359,
20145,
23255,
22482,
20048,
18207,
17667,
22961,
20704,
17536,
16399,
16443,
17099,
15460,
14536,
13756,
13260,
12820,
13148,
12448,
11871,
11351,
11015,
10637,
10405,
10082,
9801,
9697,
9140,
8959,
8503,
8515,
8171,
8186,
7541,
7378,
7099,
7039,
6875,
6522,
6256,
6192,
5876,
5697,
5474,
5226,
5147,
4979,
4555,
4482,
4325,
4131,
4035,
3769,
3672,
3564,
3398,
3241,
3060,
2994,
2731,
2638,
2573,
2380,
2289,
2171,
2087,
1879,
1801,
1755,
1660,
1588,
1493,
1350,
1325,
1239,
1177,
1152,
1029,
955,
942,
836,
818,
750,
697,
632,
595,
544,
519,
480,
409,
353,
333,
312,
285,
246,
207,
169,
174,
137,
130,
101,
71,
62,
40,
11,
8,
7,
11,
8,
9,
5,
5,
7,
5,
5,
2,
5,
4,
5,
2,
1,
4,
4,
0,
3,
0,
4,
5,
0,
2,
1,
1,
3,
0,
2,
0,
2,
1,
1,
2,
0,
2,
1,
0,
0,
0,
1,
1,
0,
1,
0,
0,
0,
0,
1,
0,
0,
0,
2,
0,
0,
1,
0,
0,
0,
0,
0,
0,
0,
0,
0,
0,
0,
0,
0,
0,
0,
0,
0,
0,
0,
0,
0,
0,
0,
0,
0,
0,
0,
0,
0,
0,
0,
0,
0,
0,
1,
0,
0,
0,
0,
0,
0,
0,
0,
0,
1,
0,
0,
0,
0,
0,
0,
0,
0,
0,
0,
0,
0,
0,
0,
0,
0,
0,
0,
0,
0,
0,
0,
0,
0,
0,
0,
0,
0,
0,
0,
0,
0,
0,
0,
0,
0,
0,
0,
0,
0,
0,
0,
0,
0,
0,
0,
0,
0,
0,
0,
0,
#ENDOFDATA   :