File: N132962/Standards/20 keV/LaB6 std.msa
#FORMAT      : EMSA/MAS Spectral Data File
#VERSION     : 1.0
#TITLE       : LaB6 std
#DATE        : 12-SEP-2025
#TIME        : 12:43
#OWNER       : Unknown
#NPOINTS     : 4096
#NCOLUMNS    : 1
#XUNITS      : eV
#YUNITS      : counts
#DATATYPE    : Y
#XPERCHAN    : 9.99778
#OFFSET      : 1.69135
#BEAMKV      : 20
#SIGNALTYPE  : EDS
#ELEVANGLE   : 35
#AZIMANGLE   : 0
#LIVETIME    : 1439.15
#REALTIME    : 1562.91
#PROBECUR    : 1.24379
#TAUWIND     : 0
#TDEADLYR    : 0
#TACTLYR     : 0.045
#TALWIND     : 0.025
#CHOFFSET    : 0.0
#XLABEL      : Energy (eV)
#YLABEL      : Counts
#EDSDET      : SD
##SPECIMEN   : LaB6 std
##D2STDCMP   : LaB6,(B:31.8327),(La:68.1673)
##DET_HASH   : 12273538-fd48-a23f-0a19-f1e6fa85caef
##CALIB_HASH : 6abaa72c-aa41-8738-0be9-f592914732f3
##WORKING    : 15.0 mm
##SAMPLE     : <BulkSample id="1">\n<mOrientation id="2">\n<double>0.0</double>\n<double>0.0</double>\n<double>-1.0</double>\n</mOrientation>\n</BulkSample>
##MULTISPEC  : 1.19495
##DET_NAME   : EDAX All
##DET_MODE   : MediumLE
#SPECTRUM    :
154,
127282,
43320,
33524,
78484,
79265,
133505,
38753,
41561,
30012,
32575,
35639,
38990,
41258,
37177,
38417,
39344,
40025,
39281,
39410,
39539,
43309,
37935,
37860,
37415,
35117,
35293,
33825,
32724,
44869,
39906,
31751,
43454,
616379,
102294,
39493,
356293,
91213,
85497,
70298,
22941,
50229,
31605,
33126,
22975,
20309,
19881,
16712,
16307,
16184,
16231,
15684,
15168,
15710,
15081,
14392,
13688,
13600,
13400,
13389,
12765,
12400,
12036,
11865,
11622,
11394,
11128,
10973,
10597,
10553,
10255,
9807,
9662,
9003,
8711,
8775,
8529,
8174,
7789,
7588,
7400,
6980,
6907,
6642,
6315,
6047,
6025,
5799,
5522,
5215,
5051,
4881,
4727,
4631,
4279,
4237,
4097,
3819,
3668,
3558,
3317,
3238,
3079,
2967,
2680,
2616,
2533,
2446,
2333,
2124,
2044,
1893,
1906,
1812,
1606,
1542,
1466,
1318,
1244,
1216,
1141,
1104,
1039,
885,
931,
780,
710,
674,
596,
597,
548,
487,
394,
402,
328,
296,
259,
255,
188,
143,
115,
80,
46,
30,
14,
13,
12,
15,
9,
21,
9,
5,
15,
12,
13,
6,
12,
7,
6,
10,
8,
11,
5,
4,
5,
6,
2,
4,
3,
6,
5,
0,
4,
1,
1,
1,
4,
6,
2,
0,
3,
5,
4,
4,
1,
2,
3,
1,
3,
3,
1,
1,
1,
1,
1,
1,
1,
1,
1,
1,
2,
4,
0,
1,
0,
3,
0,
1,
0,
0,
0,
0,
0,
0,
0,
0,
0,
0,
0,
0,
0,
0,
0,
0,
0,
1,
0,
0,
0,
1,
0,
0,
0,
0,
0,
0,
0,
0,
0,
0,
0,
0,
1,
0,
0,
0,
0,
0,
0,
0,
0,
0,
0,
0,
0,
0,
0,
0,
0,
0,
0,
0,
0,
0,
0,
0,
0,
0,
0,
0,
0,
0,
0,
0,
0,
0,
0,
0,
0,
0,
0,
0,
0,
0,
0,
0,
0,
0,
0,
0,
0,
0,
0,
0,
#ENDOFDATA   :