File: N132962/Standards/20 keV/LiF std.msa
#FORMAT      : EMSA/MAS Spectral Data File
#VERSION     : 1.0
#TITLE       : LiF std
#DATE        : 21-MAR-2025
#TIME        : 14:42
#OWNER       : Unknown
#NPOINTS     : 4096
#NCOLUMNS    : 1
#XUNITS      : eV
#YUNITS      : counts
#DATATYPE    : Y
#XPERCHAN    : 9.99778
#OFFSET      : 1.69135
#BEAMKV      : 20
#SIGNALTYPE  : EDS
#ELEVANGLE   : 35
#AZIMANGLE   : 0
#LIVETIME    : 958.413
#REALTIME    : 1044.72
#PROBECUR    : 1.02926
#TAUWIND     : 0
#TDEADLYR    : 0
#TACTLYR     : 0.045
#TALWIND     : 0.025
#CHOFFSET    : 0.0
#XLABEL      : Energy (eV)
#YLABEL      : Counts
#EDSDET      : SD
##SPECIMEN   : LiF std
##D2STDCMP   : LiF,(Li:26.7557),(F:73.2443)
##DET_HASH   : 12273538-fd48-a23f-0a19-f1e6fa85caef
##CALIB_HASH : 6abaa72c-aa41-8738-0be9-f592914732f3
##WORKING    : 15.0 mm
##SAMPLE     : <BulkSample id="1">\n<mOrientation id="2">\n<double>0.0</double>\n<double>0.0</double>\n<double>-1.0</double>\n</mOrientation>\n</BulkSample>
##MULTISPEC  : 1.17406
##DET_NAME   : EDAX All
##DET_MODE   : MediumLE
#SPECTRUM    :
104,
1982,
22701,
22642,
80819,
2547504,
4015,
5714,
6596,
10877,
17408,
8763,
9151,
9342,
8238,
7886,
7709,
7539,
7461,
7161,
6843,
6394,
6177,
5815,
5514,
5218,
5156,
4906,
4675,
4445,
4228,
4089,
3912,
3672,
3599,
3365,
3336,
3204,
3104,
2899,
2830,
2765,
2611,
2491,
2486,
2351,
2273,
2159,
2041,
1996,
1920,
1859,
1764,
1763,
1657,
1556,
1499,
1705,
1552,
1344,
1282,
1314,
1330,
1167,
1120,
1093,
1082,
1008,
949,
877,
904,
883,
842,
803,
788,
756,
708,
684,
656,
633,
636,
542,
543,
535,
481,
480,
463,
449,
455,
381,
375,
357,
341,
345,
291,
281,
281,
263,
246,
245,
216,
217,
197,
192,
188,
170,
153,
144,
167,
147,
122,
109,
108,
81,
126,
99,
77,
82,
76,
55,
43,
64,
56,
66,
37,
42,
35,
27,
29,
27,
29,
19,
17,
16,
13,
13,
17,
9,
11,
6,
3,
3,
1,
1,
0,
0,
0,
0,
0,
0,
0,
0,
0,
0,
0,
0,
0,
0,
0,
0,
0,
0,
0,
0,
0,
1,
0,
0,
1,
0,
0,
0,
0,
0,
0,
0,
0,
0,
0,
0,
0,
0,
0,
0,
0,
0,
0,
0,
0,
0,
0,
0,
0,
0,
0,
0,
0,
0,
0,
0,
0,
0,
0,
0,
0,
0,
0,
0,
0,
0,
0,
0,
0,
0,
0,
0,
0,
0,
0,
0,
0,
0,
0,
0,
0,
0,
0,
0,
0,
0,
0,
0,
0,
0,
0,
0,
0,
0,
0,
0,
0,
0,
0,
0,
0,
0,
0,
0,
0,
0,
0,
0,
0,
0,
0,
0,
0,
0,
0,
0,
0,
0,
0,
0,
0,
0,
0,
0,
0,
0,
0,
0,
0,
0,
0,
0,
0,
0,
0,
0,
0,
0,
0,
0,
0,
0,
0,
0,
0,
0,
0,
0,
0,
0,
#ENDOFDATA   :