File: N132962/Standards/20 keV/Mg std.msa
#FORMAT      : EMSA/MAS Spectral Data File
#VERSION     : 1.0
#TITLE       : Mg std
#DATE        : 20-FEB-2025
#TIME        : 15:55
#OWNER       : Unknown
#NPOINTS     : 4096
#NCOLUMNS    : 1
#XUNITS      : eV
#YUNITS      : counts
#DATATYPE    : Y
#XPERCHAN    : 9.99778
#OFFSET      : 1.69135
#BEAMKV      : 20
#SIGNALTYPE  : EDS
#ELEVANGLE   : 35
#AZIMANGLE   : 0
#LIVETIME    : 717.655
#REALTIME    : 821.106
#PROBECUR    : 1.04796
#TAUWIND     : 0
#TDEADLYR    : 0
#TACTLYR     : 0.045
#TALWIND     : 0.025
#CHOFFSET    : 0.0
#XLABEL      : Energy (eV)
#YLABEL      : Counts
#EDSDET      : SD
##SPECIMEN   : Mg std
##D2STDCMP   : Mg,(Mg:100.0)
##DET_HASH   : 12273538-fd48-a23f-0a19-f1e6fa85caef
##CALIB_HASH : 6abaa72c-aa41-8738-0be9-f592914732f3
##WORKING    : 15.0 mm
##SAMPLE     : <BulkSample id="1">\n<mOrientation id="2">\n<double>0.0</double>\n<double>0.0</double>\n<double>-1.0</double>\n</mOrientation>\n</BulkSample>
##MULTISPEC  : 22.2775
##DET_NAME   : EDAX All
##DET_MODE   : MediumLE
#SPECTRUM    :
77,
786,
13449,
10392,
22553,
25636,
24250,
30582,
62458,
4048605,
6328,
5353,
6161,
6763,
6604,
6672,
7242,
8558,
43911,
6892,
6780,
6708,
6616,
6427,
6450,
6029,
5986,
6015,
5777,
5475,
5351,
5167,
4931,
4814,
4703,
4586,
4246,
4230,
4091,
4037,
3761,
3540,
3844,
3487,
3228,
3333,
3409,
3021,
2922,
2873,
2825,
2564,
2597,
2470,
2372,
2330,
2224,
2081,
2081,
1975,
1865,
1852,
1785,
1725,
1715,
1545,
1524,
1470,
1482,
1442,
1410,
1377,
1266,
1218,
1191,
1140,
1056,
1004,
1039,
987,
929,
956,
860,
862,
810,
739,
728,
695,
676,
620,
635,
549,
563,
493,
491,
503,
471,
425,
419,
425,
387,
327,
339,
313,
266,
245,
257,
248,
239,
226,
192,
226,
173,
165,
183,
158,
153,
133,
125,
114,
112,
112,
103,
70,
83,
81,
54,
72,
53,
52,
30,
39,
38,
31,
34,
23,
16,
15,
17,
7,
9,
7,
6,
1,
2,
0,
0,
0,
0,
0,
0,
0,
1,
0,
0,
0,
0,
1,
1,
0,
0,
0,
2,
0,
0,
0,
1,
0,
0,
0,
1,
0,
0,
0,
1,
0,
0,
0,
0,
0,
0,
0,
0,
0,
0,
0,
0,
1,
0,
0,
0,
0,
0,
0,
0,
0,
0,
0,
0,
0,
0,
0,
0,
0,
0,
0,
0,
0,
0,
0,
0,
0,
0,
0,
0,
0,
0,
0,
0,
0,
0,
0,
0,
0,
0,
0,
0,
0,
0,
0,
0,
0,
0,
0,
0,
0,
0,
0,
0,
0,
0,
0,
0,
0,
0,
0,
0,
0,
0,
0,
0,
0,
0,
0,
0,
0,
0,
0,
0,
0,
0,
0,
0,
0,
0,
0,
0,
0,
0,
0,
0,
0,
0,
0,
0,
0,
0,
0,
0,
0,
0,
0,
0,
0,
0,
0,
0,
0,
0,
0,
0,
0,
0,
0,
#ENDOFDATA   :