File: N132962/Standards/20 keV/MgO std.msa
#FORMAT      : EMSA/MAS Spectral Data File
#VERSION     : 1.0
#TITLE       : MgO std
#DATE        : 12-SEP-2025
#TIME        : 09:52
#OWNER       : Unknown
#NPOINTS     : 4096
#NCOLUMNS    : 1
#XUNITS      : eV
#YUNITS      : counts
#DATATYPE    : Y
#XPERCHAN    : 9.99778
#OFFSET      : 1.69135
#BEAMKV      : 20
#SIGNALTYPE  : EDS
#ELEVANGLE   : 35
#AZIMANGLE   : 0
#LIVETIME    : 1201.11
#REALTIME    : 1317.08
#PROBECUR    : 1.23903
#TAUWIND     : 0
#TDEADLYR    : 0
#TACTLYR     : 0.045
#TALWIND     : 0.025
#CHOFFSET    : 0.0
#XLABEL      : Energy (eV)
#YLABEL      : Counts
#EDSDET      : SD
##SPECIMEN   : MgO std
##D2STDCMP   : MgO,(O:39.6964),(Mg:60.3036),5.0
##DET_HASH   : 12273538-fd48-a23f-0a19-f1e6fa85caef
##CALIB_HASH : 6abaa72c-aa41-8738-0be9-f592914732f3
##WORKING    : 15.0 mm
##SAMPLE     : <BulkSample id="1">\n<mOrientation id="2">\n<double>0.0</double>\n<double>0.0</double>\n<double>-1.0</double>\n</mOrientation>\n</BulkSample>
##MULTISPEC  : 1.20315
##DET_NAME   : EDAX All
##DET_MODE   : MediumLE
#SPECTRUM    :
113,
1269,
32711,
45074,
424845,
16310,
18901,
26952,
56579,
3334450,
12237,
11062,
13937,
18831,
12149,
12775,
13157,
13778,
27844,
13163,
12552,
12484,
12031,
11454,
11043,
10787,
10853,
10265,
10122,
9645,
9217,
8974,
8401,
8042,
7932,
7890,
7409,
7109,
6896,
6697,
6312,
6090,
6031,
5640,
5716,
5549,
5823,
4963,
4707,
4654,
4673,
4434,
4184,
4151,
4004,
3769,
3568,
3475,
3349,
3293,
3128,
3004,
2921,
2941,
2813,
2658,
2514,
2444,
2391,
2303,
2154,
2107,
2053,
1907,
1887,
1792,
1740,
1646,
1622,
1499,
1503,
1467,
1394,
1377,
1259,
1188,
1090,
1117,
1008,
1063,
978,
968,
896,
813,
827,
761,
703,
716,
671,
698,
587,
534,
515,
505,
505,
445,
468,
404,
362,
365,
335,
347,
303,
307,
257,
260,
259,
197,
186,
192,
150,
133,
158,
154,
130,
114,
112,
80,
87,
84,
91,
65,
62,
47,
43,
40,
31,
21,
29,
9,
14,
11,
7,
1,
0,
2,
1,
1,
0,
0,
1,
0,
0,
0,
0,
0,
1,
0,
0,
0,
0,
0,
0,
1,
1,
0,
0,
0,
1,
1,
0,
0,
0,
0,
0,
0,
0,
0,
0,
1,
0,
0,
0,
0,
0,
1,
0,
0,
0,
0,
0,
0,
0,
0,
0,
0,
0,
0,
0,
0,
0,
0,
0,
0,
0,
0,
0,
0,
0,
0,
0,
0,
0,
0,
0,
0,
0,
0,
0,
0,
0,
0,
0,
0,
0,
0,
0,
0,
0,
0,
0,
0,
0,
0,
0,
0,
0,
0,
0,
0,
0,
0,
0,
0,
0,
0,
0,
0,
0,
0,
0,
0,
0,
0,
0,
0,
0,
0,
0,
0,
0,
0,
0,
0,
0,
0,
0,
0,
0,
0,
0,
0,
0,
0,
0,
0,
0,
0,
0,
0,
0,
0,
0,
0,
0,
0,
0,
0,
0,
0,
0,
0,
0,
0,
#ENDOFDATA   :