File: N132962/Standards/20 keV/Mn std.msa
#FORMAT      : EMSA/MAS Spectral Data File
#VERSION     : 1.0
#TITLE       : Mn std
#DATE        : 20-FEB-2025
#TIME        : 16:56
#OWNER       : Unknown
#NPOINTS     : 4096
#NCOLUMNS    : 1
#XUNITS      : eV
#YUNITS      : counts
#DATATYPE    : Y
#XPERCHAN    : 9.99778
#OFFSET      : 1.69135
#BEAMKV      : 20
#SIGNALTYPE  : EDS
#ELEVANGLE   : 35
#AZIMANGLE   : 0
#LIVETIME    : 959.83
#REALTIME    : 1045.54
#PROBECUR    : 1.04967
#TAUWIND     : 0
#TDEADLYR    : 0
#TACTLYR     : 0.045
#TALWIND     : 0.025
#CHOFFSET    : 0.0
#XLABEL      : Energy (eV)
#YLABEL      : Counts
#EDSDET      : SD
##SPECIMEN   : Mn std
##D2STDCMP   : Mn,(Mn:100.0),5.0
##DET_HASH   : 12273538-fd48-a23f-0a19-f1e6fa85caef
##CALIB_HASH : 6abaa72c-aa41-8738-0be9-f592914732f3
##WORKING    : 15.0 mm
##SAMPLE     : <BulkSample id="1">\n<mOrientation id="2">\n<double>0.0</double>\n<double>0.0</double>\n<double>-1.0</double>\n</mOrientation>\n</BulkSample>
##MULTISPEC  : 5.3505
##DET_NAME   : EDAX All
##DET_MODE   : MediumLE
#SPECTRUM    :
121,
1581,
53344,
29939,
286611,
42918,
10639,
11717,
14286,
17071,
18705,
20619,
22469,
23673,
21450,
21728,
21994,
22224,
21721,
24725,
21053,
19974,
19262,
18881,
18417,
17684,
17366,
16550,
16337,
16978,
17818,
14739,
14295,
14134,
14263,
13396,
13181,
12448,
12415,
12436,
12846,
38695,
965391,
90794,
11158,
13639,
104331,
43834,
6759,
6595,
6748,
6620,
6376,
6650,
6183,
5934,
5701,
5732,
5735,
5525,
5153,
5218,
5055,
4850,
4731,
4688,
4525,
4292,
4244,
4163,
4083,
3976,
3825,
3753,
3674,
3526,
3448,
3332,
3214,
3030,
2989,
2784,
2742,
2853,
3824,
2961,
2371,
2357,
2414,
2296,
2023,
1901,
1876,
1772,
1700,
1679,
1631,
1466,
1418,
1420,
1266,
1280,
1150,
1205,
1030,
1036,
1013,
891,
843,
820,
800,
738,
705,
655,
589,
592,
532,
482,
420,
433,
397,
382,
378,
341,
330,
267,
273,
238,
255,
199,
189,
187,
187,
120,
115,
91,
94,
75,
50,
52,
33,
19,
22,
10,
3,
7,
6,
8,
9,
10,
7,
6,
3,
2,
4,
3,
4,
7,
7,
3,
2,
6,
4,
2,
8,
1,
1,
2,
1,
1,
0,
1,
2,
2,
1,
1,
2,
1,
1,
0,
0,
2,
1,
2,
1,
0,
1,
0,
0,
0,
0,
1,
1,
1,
0,
0,
0,
0,
0,
0,
0,
0,
0,
0,
0,
0,
0,
0,
0,
0,
0,
0,
0,
0,
0,
0,
0,
0,
0,
0,
0,
0,
1,
0,
0,
0,
0,
0,
0,
0,
0,
0,
0,
0,
0,
0,
0,
0,
0,
0,
0,
0,
0,
0,
0,
0,
0,
0,
0,
0,
0,
0,
0,
0,
0,
0,
0,
0,
0,
0,
0,
0,
0,
0,
0,
0,
0,
0,
0,
0,
0,
0,
0,
0,
0,
0,
0,
0,
0,
0,
0,
0,
0,
0,
0,
0,
0,
0,
0,
0,
0,
0,
0,
0,
#ENDOFDATA   :