File: N132962/Standards/20 keV/Mo std.msa
#FORMAT      : EMSA/MAS Spectral Data File
#VERSION     : 1.0
#TITLE       : G588 Mo[0][all]+G588 Mo[1][all]+G588 Mo[2][all]+G588 Mo[3][all]+G588 Mo[4][all]
#NPOINTS     : 4096
#NCOLUMNS    : 1
#XUNITS      : eV
#YUNITS      : counts
#DATATYPE    : Y
#SIGNALTYPE  : EDS
#XLABEL      : Energy (eV)
#YLABEL      : Counts
#XPERCHAN -eV: 9.99778
#OFFSET   -eV: 1.69135
#CHOFFSET    : 0
#OWNER       : Unknown
#ELEVANGLE   : 35
#BEAMKV   -kV: 20
#LIVETIME  -s: 1200.91
#REALTIME  -s: 1339.29
#PROBECUR -nA: 1.04548
##WORKING -mm: 15
##D2STDCMP   : Mo,(Mo:100.0000)
#SPECTRUM    :
152,
44170,
41511,
16705,
58956,
32006,
31886,
35847,
41680,
45859,
49362,
52297,
54899,
56392,
78635,
83880,
838339,
928445,
151319,
32405,
28779,
20514,
20521,
20900,
21391,
21279,
21878,
22139,
22233,
22182,
22105,
22043,
22448,
25985,
23538,
21385,
20473,
20287,
20227,
19859,
19082,
18575,
18300,
18102,
17694,
17956,
19043,
16605,
15995,
15598,
15511,
15093,
14409,
15003,
14165,
13762,
13186,
12882,
12474,
12318,
11694,
11483,
11194,
10808,
10626,
10369,
10120,
9896,
9560,
9275,
9135,
8756,
8586,
8391,
8070,
7757,
7411,
7295,
7125,
6766,
6594,
6383,
6148,
5965,
5756,
5587,
5348,
5253,
4852,
4716,
4624,
4392,
4209,
4078,
3948,
3841,
3572,
3418,
3303,
3164,
2934,
2814,
2737,
2536,
2498,
2457,
2355,
2242,
2010,
2006,
1923,
1725,
1596,
1635,
1481,
1375,
1292,
1233,
1209,
1139,
1037,
968,
871,
859,
838,
737,
664,
638,
554,
520,
464,
421,
388,
360,
314,
293,
267,
206,
188,
134,
100,
74,
41,
28,
12,
5,
3,
9,
4,
9,
15,
11,
7,
7,
8,
7,
5,
7,
10,
4,
5,
3,
3,
2,
5,
5,
4,
4,
2,
3,
4,
0,
0,
3,
2,
1,
3,
1,
3,
1,
1,
2,
1,
4,
4,
3,
4,
2,
3,
1,
0,
1,
0,
2,
1,
2,
0,
0,
0,
2,
2,
0,
4,
2,
1,
1,
0,
0,
1,
1,
0,
0,
1,
0,
0,
0,
0,
0,
0,
0,
0,
0,
0,
0,
0,
0,
0,
0,
0,
0,
0,
0,
0,
0,
0,
0,
0,
0,
0,
0,
0,
0,
1,
0,
0,
0,
0,
0,
0,
0,
0,
0,
0,
0,
0,
0,
0,
0,
0,
0,
0,
0,
0,
0,
0,
0,
0,
0,
0,
0,
0,
0,
0,
0,
0,
0,
0,
0,
0,
0,
0,
0,
0,
0,
0,
0,
0,
0,
0,
0,
0,
0,
0,
0,
#ENDOFDATA   :