File: N132962/Standards/20 keV/NaCl std.msa
#FORMAT      : EMSA/MAS Spectral Data File
#VERSION     : 1.0
#TITLE       : NaCl std
#DATE        : 17-MAR-2025
#TIME        : 10:02
#OWNER       : Unknown
#NPOINTS     : 4096
#NCOLUMNS    : 1
#XUNITS      : eV
#YUNITS      : counts
#DATATYPE    : Y
#XPERCHAN    : 10
#OFFSET      : 0
#BEAMKV      : 20
#SIGNALTYPE  : EDS
#ELEVANGLE   : 35
#AZIMANGLE   : 0
#LIVETIME    : 1195.35
#REALTIME    : 1307.22
#PROBECUR    : 1.02451
#TAUWIND     : 0
#TDEADLYR    : 0
#TACTLYR     : 0.045
#TALWIND     : 0.025
#CHOFFSET    : 0.0
#XLABEL      : Energy (eV)
#YLABEL      : Counts
#EDSDET      : SD
##SPECIMEN   : NaCl std
##D2STDCMP   : NaCl,(Na:39.3372),(Cl:60.6628),5.0
##DET_HASH   : 74d34f93-f0f0-54c9-686d-5ecd3225a094
##CALIB_HASH : 89d4943c-4976-8a46-a4c8-892a1ccde960
##WORKING    : 15.0 mm
##SAMPLE     : <BulkSample id="1">\n<mOrientation id="2">\n<double>0.0</double>\n<double>0.0</double>\n<double>-1.0</double>\n</mOrientation>\n</BulkSample>
##MULTISPEC  : 25.0044
##DET_NAME   : EDAX Det 2
##DET_MODE   : MediumLE
#SPECTRUM    :
118,
4215,
17285,
11398,
32264,
20198,
47366,
360613,
90691,
17607,
19686,
21703,
30278,
25888,
20185,
23695,
23106,
22775,
149817,
1277245,
167312,
13162,
9904,
10814,
14694,
10555,
17151,
10247,
9791,
9313,
9031,
8970,
8460,
8375,
8303,
8061,
7902,
9250,
9045,
7972,
7025,
6700,
6592,
6257,
6067,
6029,
6108,
5467,
5526,
5253,
5190,
4991,
4819,
4993,
4674,
4440,
4337,
4084,
3868,
3852,
3829,
3670,
3378,
3362,
3316,
3107,
2992,
2987,
2987,
2812,
2800,
2551,
2465,
2395,
2317,
2195,
2132,
2093,
2022,
1854,
1868,
1805,
1740,
1707,
1634,
1526,
1407,
1371,
1384,
1264,
1210,
1197,
1097,
1035,
1018,
1000,
891,
856,
789,
774,
823,
760,
658,
633,
614,
610,
558,
531,
486,
468,
422,
435,
431,
381,
316,
316,
305,
276,
255,
255,
221,
196,
221,
197,
171,
162,
150,
118,
96,
118,
92,
62,
69,
74,
58,
59,
53,
33,
36,
30,
16,
13,
3,
1,
5,
1,
2,
1,
1,
3,
1,
1,
1,
0,
0,
0,
0,
1,
1,
0,
0,
0,
0,
1,
0,
0,
0,
0,
0,
0,
0,
0,
2,
0,
0,
0,
0,
1,
0,
0,
0,
0,
0,
0,
0,
0,
0,
0,
0,
0,
1,
0,
0,
0,
0,
1,
0,
0,
0,
0,
0,
0,
0,
0,
0,
0,
0,
0,
0,
0,
0,
0,
0,
0,
0,
0,
0,
0,
0,
0,
0,
0,
0,
0,
0,
0,
0,
0,
0,
0,
0,
0,
0,
0,
0,
0,
0,
0,
0,
0,
0,
0,
0,
0,
0,
0,
0,
0,
0,
0,
0,
0,
0,
0,
0,
0,
0,
0,
0,
0,
0,
0,
0,
0,
0,
0,
0,
0,
0,
0,
0,
0,
0,
0,
0,
0,
0,
0,
0,
0,
0,
0,
0,
0,
0,
0,
0,
0,
0,
0,
0,
0,
0,
0,
#ENDOFDATA   :