File: N132962/Standards/20 keV/NaF std.msa
#FORMAT      : EMSA/MAS Spectral Data File
#VERSION     : 1.0
#TITLE       : NaF std
#DATE        : 21-MAR-2025
#TIME        : 14:48
#OWNER       : Unknown
#NPOINTS     : 4096
#NCOLUMNS    : 1
#XUNITS      : eV
#YUNITS      : counts
#DATATYPE    : Y
#XPERCHAN    : 9.99778
#OFFSET      : 1.69135
#BEAMKV      : 20
#SIGNALTYPE  : EDS
#ELEVANGLE   : 35
#AZIMANGLE   : 0
#LIVETIME    : 958.592
#REALTIME    : 1036.2
#PROBECUR    : 1.02926
#TAUWIND     : 0
#TDEADLYR    : 0
#TACTLYR     : 0.045
#TALWIND     : 0.025
#CHOFFSET    : 0.0
#XLABEL      : Energy (eV)
#YLABEL      : Counts
#EDSDET      : SD
##SPECIMEN   : NaF std
##D2STDCMP   : NaF,(F:45.2465),(Na:54.7535),5.0
##DET_HASH   : 12273538-fd48-a23f-0a19-f1e6fa85caef
##CALIB_HASH : 6abaa72c-aa41-8738-0be9-f592914732f3
##WORKING    : 15.0 mm
##SAMPLE     : <BulkSample id="1">\n<mOrientation id="2">\n<double>0.0</double>\n<double>0.0</double>\n<double>-1.0</double>\n</mOrientation>\n</BulkSample>
##MULTISPEC  : 2.24216
##DET_NAME   : EDAX All
##DET_MODE   : MediumLE
#SPECTRUM    :
113,
1416,
23519,
18924,
52025,
1291839,
12634,
281624,
65203,
7171,
9444,
8480,
15567,
9592,
8840,
11501,
8944,
9078,
8969,
8577,
8521,
8293,
8062,
7760,
7456,
7278,
7086,
6684,
6566,
6336,
5934,
5750,
5636,
5252,
5203,
5007,
4742,
4588,
4442,
4259,
4155,
4035,
3822,
3706,
3573,
3630,
3406,
3187,
3050,
2989,
2867,
2856,
2593,
2608,
2539,
2318,
2498,
2358,
2165,
2095,
1951,
2048,
2035,
1849,
1873,
1700,
1624,
1501,
1511,
1476,
1453,
1321,
1315,
1295,
1210,
1141,
1097,
1163,
1039,
1020,
990,
938,
872,
864,
848,
721,
716,
701,
660,
605,
606,
608,
576,
517,
530,
494,
514,
460,
391,
425,
381,
338,
349,
317,
297,
274,
275,
239,
251,
212,
203,
205,
181,
165,
147,
157,
143,
128,
122,
105,
103,
104,
72,
92,
81,
54,
57,
77,
56,
44,
50,
35,
36,
28,
33,
28,
11,
26,
9,
8,
9,
3,
3,
1,
0,
0,
0,
0,
0,
0,
0,
1,
0,
0,
0,
0,
1,
0,
0,
0,
0,
0,
0,
0,
0,
0,
0,
0,
0,
0,
0,
0,
0,
0,
0,
0,
0,
0,
0,
0,
0,
0,
0,
0,
0,
0,
0,
0,
0,
0,
0,
0,
0,
0,
0,
0,
1,
0,
0,
0,
0,
0,
0,
0,
0,
0,
0,
0,
0,
0,
0,
0,
0,
0,
0,
0,
0,
0,
0,
0,
0,
0,
0,
0,
0,
0,
0,
0,
0,
0,
0,
0,
0,
0,
0,
0,
0,
0,
0,
0,
0,
0,
0,
0,
0,
0,
0,
0,
0,
0,
0,
0,
0,
0,
0,
0,
0,
0,
0,
0,
0,
0,
0,
0,
0,
0,
0,
0,
0,
0,
0,
0,
0,
0,
0,
0,
0,
0,
0,
0,
0,
0,
0,
0,
0,
0,
0,
0,
0,
0,
0,
0,
0,
0,
#ENDOFDATA   :