File: N132962/Standards/20 keV/Nb std.msa
#FORMAT      : EMSA/MAS Spectral Data File
#VERSION     : 1.0
#TITLE       : G588 Nb[0][all]+G588 Nb[1][all]+G588 Nb[2][all]+G588 Nb[3][all]+G588 Nb[4][all]
#NPOINTS     : 4096
#NCOLUMNS    : 1
#XUNITS      : eV
#YUNITS      : counts
#DATATYPE    : Y
#SIGNALTYPE  : EDS
#XLABEL      : Energy (eV)
#YLABEL      : Counts
#XPERCHAN -eV: 9.99778
#OFFSET   -eV: 1.69135
#CHOFFSET    : 0
#OWNER       : Unknown
#ELEVANGLE   : 35
#BEAMKV   -kV: 20
#LIVETIME  -s: 1199.712
#REALTIME  -s: 1335.74
#PROBECUR -nA: 0.83562
##WORKING -mm: 15
##D2STDCMP   : Nb,(Nb:100.0000),5.000
#SPECTRUM    :
141,
50904,
34502,
58382,
37415,
28449,
33779,
38183,
43542,
47798,
51668,
55012,
57282,
69778,
95220,
582391,
1074038,
139172,
25414,
30244,
19902,
20313,
20806,
21587,
21829,
22253,
22311,
22114,
22295,
22288,
22632,
26625,
24592,
21423,
20566,
20243,
20190,
19857,
19720,
19815,
18733,
18492,
17916,
17720,
17107,
17460,
18943,
15972,
15432,
15235,
15189,
14451,
13964,
14541,
13894,
12997,
12933,
12491,
12163,
12175,
11507,
11032,
10786,
10660,
10238,
9965,
9988,
9439,
9248,
9064,
8718,
8440,
8174,
8009,
7720,
7636,
7271,
7130,
6911,
6570,
6381,
6182,
5918,
5766,
5662,
5247,
5180,
4925,
4872,
4789,
4413,
4295,
4183,
3956,
3728,
3680,
3491,
3274,
3068,
2970,
2929,
2847,
2614,
2536,
2379,
2231,
2189,
2055,
2005,
1884,
1790,
1639,
1569,
1532,
1434,
1319,
1279,
1494,
2284,
1906,
1072,
955,
833,
806,
775,
726,
668,
604,
578,
520,
481,
438,
446,
486,
325,
278,
245,
173,
149,
154,
96,
69,
35,
21,
22,
14,
15,
7,
14,
12,
6,
9,
9,
7,
7,
2,
9,
6,
6,
5,
1,
1,
7,
3,
3,
1,
2,
2,
4,
3,
2,
3,
2,
3,
5,
1,
3,
1,
0,
3,
2,
1,
4,
2,
0,
1,
3,
5,
1,
0,
4,
3,
3,
0,
1,
1,
0,
1,
0,
0,
0,
0,
1,
0,
0,
0,
1,
0,
1,
0,
0,
2,
0,
0,
0,
0,
0,
0,
0,
0,
0,
0,
0,
0,
0,
1,
0,
0,
0,
0,
1,
0,
0,
0,
0,
0,
1,
0,
0,
0,
0,
0,
0,
0,
0,
0,
0,
0,
0,
0,
0,
0,
0,
0,
0,
1,
0,
0,
0,
0,
0,
0,
0,
0,
0,
0,
0,
0,
0,
0,
0,
0,
0,
0,
0,
0,
0,
0,
0,
0,
0,
0,
0,
0,
0,
0,
0,
0,
0,
0,
0,
0,
0,
0,
#ENDOFDATA   :