File: N132962/Standards/20 keV/Ni std.msa
#FORMAT      : EMSA/MAS Spectral Data File
#VERSION     : 1.0
#TITLE       : Ni std
#DATE        : 21-FEB-2025
#TIME        : 09:39
#OWNER       : Unknown
#NPOINTS     : 4096
#NCOLUMNS    : 1
#XUNITS      : eV
#YUNITS      : counts
#DATATYPE    : Y
#XPERCHAN    : 9.99778
#OFFSET      : 1.69135
#BEAMKV      : 20
#SIGNALTYPE  : EDS
#ELEVANGLE   : 35
#AZIMANGLE   : 0
#LIVETIME    : 1199.68
#REALTIME    : 1310.03
#PROBECUR    : 1.05789
#TAUWIND     : 0
#TDEADLYR    : 0
#TACTLYR     : 0.045
#TALWIND     : 0.025
#CHOFFSET    : 0.0
#XLABEL      : Energy (eV)
#YLABEL      : Counts
#EDSDET      : SD
##SPECIMEN   : Ni std
##D2STDCMP   : Ni,(Ni:100.0)
##DET_HASH   : 12273538-fd48-a23f-0a19-f1e6fa85caef
##CALIB_HASH : 6abaa72c-aa41-8738-0be9-f592914732f3
##WORKING    : 15.0 mm
##SAMPLE     : <BulkSample id="1">\n<mOrientation id="2">\n<double>0.0</double>\n<double>0.0</double>\n<double>-1.0</double>\n</mOrientation>\n</BulkSample>
##MULTISPEC  : 1.58398
##DET_NAME   : EDAX All
##DET_MODE   : MediumLE
#SPECTRUM    :
132,
1528,
33930,
29515,
48895,
203017,
1276817,
16785,
14106,
17553,
20406,
23033,
26804,
26190,
24097,
25424,
26388,
26519,
26638,
26684,
26087,
25770,
25181,
24783,
24295,
23460,
23228,
22401,
22091,
21288,
20724,
20042,
19668,
19251,
18527,
17888,
17249,
16594,
16453,
16353,
15796,
16824,
17338,
14505,
13914,
14595,
16893,
12920,
12314,
12195,
12665,
12497,
21181,
547074,
266899,
11587,
10432,
10710,
21001,
105760,
18105,
6912,
6932,
6656,
6533,
6742,
6216,
6124,
5981,
5830,
5674,
5547,
5398,
5310,
5040,
5035,
4789,
4622,
4465,
4365,
4272,
4137,
3927,
3841,
3660,
3602,
3373,
3317,
3131,
3075,
2921,
2913,
2698,
2581,
2495,
2431,
2287,
2227,
2150,
2059,
1933,
1778,
1835,
1606,
1576,
1552,
1698,
1856,
1332,
1239,
1138,
1093,
1162,
1081,
918,
863,
844,
753,
723,
694,
626,
592,
594,
518,
491,
464,
375,
361,
352,
334,
328,
241,
278,
225,
202,
184,
161,
140,
86,
96,
63,
36,
25,
19,
13,
17,
13,
15,
4,
10,
4,
8,
11,
8,
6,
10,
7,
4,
5,
8,
4,
9,
6,
4,
2,
7,
3,
6,
0,
6,
8,
2,
3,
3,
6,
2,
6,
1,
2,
4,
1,
3,
2,
0,
1,
3,
1,
1,
2,
1,
0,
0,
1,
0,
4,
0,
1,
0,
1,
0,
0,
0,
1,
0,
0,
0,
2,
1,
1,
0,
0,
0,
0,
0,
0,
1,
0,
0,
1,
0,
0,
0,
1,
0,
0,
0,
0,
0,
0,
0,
0,
0,
1,
0,
0,
0,
0,
0,
0,
0,
0,
0,
0,
0,
0,
0,
0,
0,
0,
0,
0,
0,
0,
0,
0,
0,
0,
0,
0,
0,
0,
0,
0,
0,
0,
0,
0,
0,
0,
0,
0,
0,
0,
0,
0,
0,
0,
0,
0,
0,
0,
0,
0,
0,
0,
0,
0,
0,
0,
0,
0,
0,
0,
0,
#ENDOFDATA   :