File: N132962/Standards/20 keV/PbGe std.msa
#FORMAT      : EMSA/MAS Spectral Data File
#VERSION     : 1.0
#TITLE       : PbGe std
#DATE        : 01-MAY-2025
#TIME        : 09:32
#OWNER       : Unknown
#NPOINTS     : 4096
#NCOLUMNS    : 1
#XUNITS      : eV
#YUNITS      : counts
#DATATYPE    : Y
#XPERCHAN    : 9.99778
#OFFSET      : 1.69135
#BEAMKV      : 20
#SIGNALTYPE  : EDS
#ELEVANGLE   : 35
#AZIMANGLE   : 0
#LIVETIME    : 1682.01
#REALTIME    : 1840.53
#PROBECUR    : 1.04225
#TAUWIND     : 0
#TDEADLYR    : 0
#TACTLYR     : 0.045
#TALWIND     : 0.025
#CHOFFSET    : 0.0
#XLABEL      : Energy (eV)
#YLABEL      : Counts
#EDSDET      : SD
##SPECIMEN   : PbGe std
##D2STDCMP   : PbGe,(Ge:25.955),(Pb:74.045)
##DET_HASH   : 12273538-fd48-a23f-0a19-f1e6fa85caef
##CALIB_HASH : 6abaa72c-aa41-8738-0be9-f592914732f3
##WORKING    : 15.0 mm
##SAMPLE     : <BulkSample id="1">\n<mOrientation id="2">\n<double>0.0</double>\n<double>0.0</double>\n<double>-1.0</double>\n</mOrientation>\n</BulkSample>
##MULTISPEC  : 1.97802
##DET_NAME   : EDAX All
##DET_MODE   : MediumLE
#SPECTRUM    :
189,
3360,
96837,
42411,
148970,
49748,
49455,
63349,
164974,
241924,
46400,
48377,
53699,
101963,
52961,
54963,
104421,
775155,
138195,
75669,
36141,
39132,
47032,
37250,
34720,
36025,
35083,
34490,
32932,
32923,
32468,
32212,
35552,
32313,
31910,
31578,
30554,
29660,
29370,
28582,
28011,
27511,
26716,
26429,
25846,
25933,
26901,
23965,
23420,
23250,
22677,
22051,
21342,
22419,
20855,
19984,
19666,
19001,
18641,
18613,
17380,
16956,
16952,
16297,
15821,
17381,
17465,
14782,
14485,
16007,
88973,
88867,
14717,
12901,
18229,
64453,
36563,
12338,
23678,
18858,
10173,
9691,
9110,
8932,
8618,
8300,
8318,
8623,
8405,
11386,
28426,
12590,
7488,
7228,
5922,
5533,
5319,
5123,
4876,
4692,
4521,
4385,
4267,
4007,
3910,
5041,
4452,
3506,
3607,
3200,
2831,
2721,
2564,
2385,
2251,
2139,
2083,
1896,
1780,
1797,
1594,
1523,
1483,
1281,
1228,
1181,
1077,
952,
930,
836,
741,
722,
661,
555,
481,
439,
422,
353,
271,
239,
210,
140,
73,
35,
33,
33,
44,
30,
16,
23,
18,
22,
27,
22,
24,
21,
13,
15,
14,
11,
14,
22,
16,
10,
10,
12,
9,
6,
13,
10,
10,
10,
4,
7,
8,
7,
5,
9,
13,
3,
5,
3,
10,
3,
9,
4,
7,
6,
4,
8,
7,
1,
3,
3,
2,
7,
3,
2,
2,
3,
2,
2,
1,
3,
3,
1,
3,
3,
2,
0,
1,
1,
0,
0,
0,
1,
1,
0,
1,
1,
0,
1,
1,
0,
0,
0,
1,
0,
1,
0,
0,
0,
0,
0,
0,
0,
0,
1,
0,
0,
1,
0,
0,
0,
0,
0,
0,
0,
0,
0,
0,
0,
1,
0,
0,
0,
0,
0,
0,
0,
0,
0,
0,
0,
0,
0,
0,
0,
0,
0,
0,
0,
0,
0,
0,
0,
0,
0,
0,
0,
0,
0,
0,
0,
0,
0,
0,
0,
0,
0,
0,
0,
0,
0,
#ENDOFDATA   :