File: N132962/Standards/20 keV/PbO std.msa
#FORMAT      : EMSA/MAS Spectral Data File
#VERSION     : 1.0
#TITLE       : PbO std
#DATE        : 01-MAY-2025
#TIME        : 09:44
#OWNER       : Unknown
#NPOINTS     : 4096
#NCOLUMNS    : 1
#XUNITS      : eV
#YUNITS      : counts
#DATATYPE    : Y
#XPERCHAN    : 9.99778
#OFFSET      : 1.69135
#BEAMKV      : 20
#SIGNALTYPE  : EDS
#ELEVANGLE   : 35
#AZIMANGLE   : 0
#LIVETIME    : 1200.61
#REALTIME    : 1351.35
#PROBECUR    : 1.04225
#TAUWIND     : 0
#TDEADLYR    : 0
#TACTLYR     : 0.045
#TALWIND     : 0.025
#CHOFFSET    : 0.0
#XLABEL      : Energy (eV)
#YLABEL      : Counts
#EDSDET      : SD
##SPECIMEN   : PbO std
##D2STDCMP   : PbO,(O:7.168),(Pb:92.832)
##DET_HASH   : 12273538-fd48-a23f-0a19-f1e6fa85caef
##CALIB_HASH : 6abaa72c-aa41-8738-0be9-f592914732f3
##WORKING    : 15.0 mm
##SAMPLE     : <BulkSample id="1">\n<mOrientation id="2">\n<double>0.0</double>\n<double>0.0</double>\n<double>-1.0</double>\n</mOrientation>\n</BulkSample>
##MULTISPEC  : 36.6482
##DET_NAME   : EDAX All
##DET_MODE   : MediumLE
#SPECTRUM    :
131,
7534,
222168,
28172,
69078,
64401,
37633,
41413,
44497,
49798,
53343,
56807,
61252,
133324,
59256,
62639,
136512,
1133537,
181562,
79128,
30226,
34529,
43289,
31625,
29073,
29683,
29272,
30063,
28398,
29007,
29257,
29285,
32955,
29891,
31410,
29858,
28383,
27963,
27774,
27324,
26849,
26657,
26106,
25843,
25189,
25567,
26600,
24063,
23803,
22983,
22866,
22201,
21659,
22398,
21132,
20345,
20086,
19413,
19168,
18604,
18592,
17983,
17681,
17308,
16684,
18655,
19228,
15800,
15263,
14850,
14303,
14190,
13909,
13765,
21180,
84795,
46620,
12771,
11586,
11184,
11064,
11150,
10188,
9788,
9436,
9159,
9494,
9966,
9654,
13934,
38342,
16183,
8661,
8505,
6468,
6149,
5806,
5410,
5326,
5224,
4941,
4735,
4860,
4395,
4546,
6167,
5304,
3980,
4208,
3613,
3141,
2880,
2788,
2664,
2462,
2381,
2280,
2155,
2022,
1954,
1822,
1754,
1527,
1480,
1422,
1281,
1229,
1096,
1030,
960,
896,
762,
727,
626,
572,
475,
455,
358,
280,
215,
163,
117,
82,
63,
38,
30,
29,
20,
35,
32,
39,
45,
21,
18,
16,
26,
25,
27,
17,
7,
18,
18,
15,
15,
13,
12,
20,
12,
14,
6,
5,
10,
5,
11,
7,
7,
10,
11,
8,
10,
14,
12,
15,
7,
7,
11,
5,
6,
10,
4,
7,
6,
5,
3,
4,
2,
5,
9,
2,
3,
5,
3,
2,
2,
1,
5,
2,
3,
1,
2,
2,
1,
2,
1,
2,
2,
2,
4,
0,
2,
1,
2,
1,
0,
2,
0,
0,
0,
0,
1,
0,
3,
2,
0,
1,
0,
0,
0,
1,
0,
0,
1,
0,
0,
0,
0,
0,
0,
0,
0,
0,
0,
0,
0,
0,
0,
0,
0,
0,
0,
0,
0,
0,
0,
0,
0,
0,
0,
0,
0,
0,
0,
0,
0,
0,
0,
0,
0,
0,
0,
0,
0,
0,
0,
0,
0,
0,
0,
0,
0,
0,
0,
0,
0,
#ENDOFDATA   :