File: N132962/Standards/20 keV/PbTe std.msa
#FORMAT      : EMSA/MAS Spectral Data File
#VERSION     : 1.0
#TITLE       : PbTe std
#DATE        : 01-MAY-2025
#TIME        : 09:38
#OWNER       : Unknown
#NPOINTS     : 4096
#NCOLUMNS    : 1
#XUNITS      : eV
#YUNITS      : counts
#DATATYPE    : Y
#XPERCHAN    : 9.99778
#OFFSET      : 1.69135
#BEAMKV      : 20
#SIGNALTYPE  : EDS
#ELEVANGLE   : 35
#AZIMANGLE   : 0
#LIVETIME    : 961.017
#REALTIME    : 1068.99
#PROBECUR    : 1.04225
#TAUWIND     : 0
#TDEADLYR    : 0
#TACTLYR     : 0.045
#TALWIND     : 0.025
#CHOFFSET    : 0.0
#XLABEL      : Energy (eV)
#YLABEL      : Counts
#EDSDET      : SD
##SPECIMEN   : PbTe std
##D2STDCMP   : PbTe,(Te:38.1123),(Pb:61.8877)
##DET_HASH   : 12273538-fd48-a23f-0a19-f1e6fa85caef
##CALIB_HASH : 6abaa72c-aa41-8738-0be9-f592914732f3
##WORKING    : 15.0 mm
##SAMPLE     : <BulkSample id="1">\n<mOrientation id="2">\n<double>0.0</double>\n<double>0.0</double>\n<double>-1.0</double>\n</mOrientation>\n</BulkSample>
##MULTISPEC  : 1.23995
##DET_NAME   : EDAX All
##DET_MODE   : MediumLE
#SPECTRUM    :
89,
7592,
76048,
45291,
37622,
31477,
29760,
26853,
29133,
32602,
35993,
39166,
41352,
77318,
41872,
42928,
79049,
560914,
101870,
53008,
26579,
29120,
34239,
27461,
33037,
26353,
36093,
261537,
35870,
137234,
38359,
51806,
28210,
31311,
25332,
23758,
20160,
19993,
19680,
19522,
19369,
19136,
19071,
18720,
18627,
18548,
19366,
17413,
17180,
16810,
16676,
16199,
15901,
16423,
15703,
14806,
14544,
14249,
13985,
14000,
13191,
13099,
12803,
12616,
12180,
13169,
13394,
11445,
11056,
10782,
10682,
10405,
10023,
9964,
14158,
48283,
27011,
9198,
8501,
8250,
7936,
8059,
7540,
7282,
6997,
6890,
6766,
7032,
6732,
9116,
22177,
10173,
6087,
6039,
4954,
4595,
4317,
4220,
4021,
3748,
3694,
3625,
3683,
3368,
3381,
4274,
3661,
2926,
3119,
2770,
2398,
2266,
2210,
2176,
1923,
1800,
1777,
1687,
1560,
1509,
1410,
1321,
1220,
1199,
1072,
1035,
970,
862,
854,
809,
722,
681,
595,
546,
503,
416,
414,
324,
269,
223,
172,
116,
76,
38,
32,
30,
17,
29,
17,
15,
22,
30,
18,
18,
17,
17,
16,
13,
12,
14,
13,
14,
12,
6,
12,
10,
8,
7,
12,
12,
7,
11,
4,
6,
4,
3,
7,
0,
8,
2,
5,
9,
8,
9,
4,
7,
8,
5,
2,
3,
3,
4,
4,
2,
2,
4,
7,
3,
5,
5,
1,
6,
5,
2,
4,
0,
0,
1,
1,
1,
2,
1,
3,
1,
1,
1,
2,
1,
1,
0,
1,
0,
0,
2,
0,
1,
0,
2,
0,
0,
0,
0,
0,
1,
0,
0,
1,
0,
0,
0,
0,
1,
0,
0,
1,
0,
0,
0,
0,
0,
1,
0,
0,
0,
0,
0,
1,
0,
0,
0,
0,
0,
0,
0,
0,
0,
0,
0,
0,
0,
0,
0,
0,
0,
0,
0,
0,
0,
0,
0,
0,
0,
0,
0,
0,
0,
0,
0,
0,
0,
0,
0,
0,
0,
#ENDOFDATA   :