File: N132962/Standards/20 keV/Pd std.msa
#FORMAT      : EMSA/MAS Spectral Data File
#VERSION     : 1.0
#TITLE       : G588 Pd[1][all]+G588 Pd[2][all]+G588 Pd[3][all]+G588 Pd[4][all]
#NPOINTS     : 4096
#NCOLUMNS    : 1
#XUNITS      : eV
#YUNITS      : counts
#DATATYPE    : Y
#SIGNALTYPE  : EDS
#XLABEL      : Energy (eV)
#YLABEL      : Counts
#XPERCHAN -eV: 9.99778
#OFFSET   -eV: 1.69135
#CHOFFSET    : 0
#OWNER       : Unknown
#ELEVANGLE   : 35
#BEAMKV   -kV: 20
#LIVETIME  -s: 960.072
#REALTIME  -s: 1068.83
#PROBECUR -nA: 1.04548
##WORKING -mm: 15
##D2STDCMP   : Pd,(Pd:100.0000)
#SPECTRUM    :
113,
6829,
238037,
15068,
17178,
17850,
20773,
23660,
42248,
37900,
34945,
36532,
39060,
39820,
35657,
37374,
40480,
37883,
78423,
56071,
798642,
355110,
200349,
79369,
40451,
22432,
18331,
16233,
16439,
16554,
16594,
16758,
16756,
16623,
16632,
16499,
16535,
16352,
16106,
16280,
16277,
16814,
16520,
15339,
14595,
14771,
16041,
13625,
13228,
12998,
13023,
12607,
12254,
12583,
11792,
11381,
11119,
11075,
10577,
10455,
9940,
9885,
9615,
9306,
9256,
8759,
8535,
8306,
8318,
8043,
7716,
8101,
7426,
7217,
6977,
6815,
6501,
6231,
6269,
5820,
5712,
5580,
5537,
5265,
5171,
5048,
4755,
4468,
4462,
4160,
4012,
3907,
3712,
3535,
3409,
3336,
3177,
3011,
2890,
2873,
2636,
2541,
2345,
2311,
2269,
2132,
2017,
1889,
1809,
1717,
1645,
1549,
1452,
1469,
1393,
1284,
1123,
1134,
1038,
984,
953,
929,
778,
768,
716,
666,
633,
561,
537,
514,
415,
404,
336,
320,
281,
261,
235,
205,
163,
124,
112,
64,
44,
17,
13,
11,
8,
14,
7,
5,
8,
9,
6,
6,
10,
6,
9,
4,
7,
4,
4,
7,
3,
4,
2,
4,
3,
3,
5,
2,
3,
4,
1,
5,
4,
2,
3,
6,
5,
2,
4,
1,
1,
2,
2,
1,
0,
4,
1,
2,
2,
1,
1,
0,
2,
0,
0,
1,
1,
0,
4,
1,
0,
1,
1,
0,
0,
0,
1,
0,
0,
2,
2,
0,
1,
1,
0,
0,
0,
0,
0,
0,
0,
0,
0,
0,
1,
0,
1,
0,
1,
0,
0,
0,
0,
0,
0,
0,
0,
0,
0,
0,
0,
0,
0,
0,
0,
0,
0,
0,
0,
0,
0,
0,
0,
0,
0,
1,
0,
0,
0,
0,
0,
0,
0,
0,
1,
0,
0,
0,
0,
0,
0,
0,
0,
0,
0,
0,
0,
0,
0,
0,
0,
0,
0,
0,
0,
0,
0,
0,
0,
0,
0,
0,
#ENDOFDATA   :