File: N132962/Standards/20 keV/Pt std.msa
#FORMAT      : EMSA/MAS Spectral Data File
#VERSION     : 1.0
#TITLE       : G588 Pt[0][all]+G588 Pt[1][all]+G588 Pt[2][all]+G588 Pt[3][all]+G588 Pt[4][all]
#NPOINTS     : 4096
#NCOLUMNS    : 1
#XUNITS      : eV
#YUNITS      : counts
#DATATYPE    : Y
#SIGNALTYPE  : EDS
#XLABEL      : Energy (eV)
#YLABEL      : Counts
#XPERCHAN -eV: 9.99778
#OFFSET   -eV: 1.69135
#CHOFFSET    : 0
#OWNER       : Unknown
#ELEVANGLE   : 35
#BEAMKV   -kV: 20
#LIVETIME  -s: 1199.74
#REALTIME  -s: 1362.84
#PROBECUR -nA: 1.04502
##WORKING -mm: 15
##D2STDCMP   : Pt,(Pt:100.0000)
#SPECTRUM    :
128,
5521,
76870,
36502,
34427,
41777,
46717,
49322,
56245,
61327,
64743,
100178,
86070,
75780,
237230,
1332228,
55415,
51256,
31692,
40448,
31832,
30219,
29981,
30953,
29899,
30287,
30906,
31396,
31588,
33364,
34733,
31372,
31218,
30858,
30870,
30624,
30266,
29965,
30019,
30016,
28979,
28603,
28165,
27092,
26945,
27881,
30073,
25715,
25312,
24473,
24632,
23741,
23157,
24364,
22913,
21860,
21099,
20994,
21374,
29016,
20685,
19039,
18678,
18462,
17922,
17431,
24737,
143700,
93375,
17270,
15904,
16390,
15017,
14224,
13938,
13573,
13439,
16938,
22999,
59509,
49083,
25548,
13529,
11867,
9735,
9054,
9037,
8584,
8419,
8326,
8191,
8215,
13393,
11054,
7969,
8712,
6710,
6031,
5806,
5628,
5290,
5050,
4940,
4746,
4512,
4288,
4156,
4027,
3860,
3574,
3550,
3347,
3067,
2976,
2854,
2734,
2503,
2443,
2347,
2199,
2100,
1931,
1787,
1796,
1693,
1596,
1460,
1344,
1274,
1233,
1069,
1004,
873,
864,
745,
722,
577,
522,
439,
380,
278,
213,
145,
71,
53,
41,
63,
66,
49,
41,
26,
38,
24,
36,
36,
39,
35,
27,
28,
38,
29,
21,
24,
13,
22,
18,
13,
13,
11,
15,
15,
16,
11,
10,
10,
10,
15,
15,
18,
14,
8,
16,
14,
16,
15,
11,
12,
7,
10,
6,
10,
7,
7,
11,
6,
5,
7,
6,
7,
5,
4,
3,
2,
3,
3,
2,
2,
3,
1,
4,
0,
2,
5,
3,
2,
0,
2,
0,
1,
1,
1,
0,
0,
1,
0,
0,
0,
0,
1,
1,
1,
0,
1,
1,
2,
0,
0,
0,
0,
0,
0,
0,
0,
1,
1,
0,
0,
0,
0,
0,
0,
0,
0,
0,
0,
0,
0,
0,
0,
0,
0,
0,
0,
0,
0,
0,
0,
0,
0,
0,
0,
0,
0,
0,
0,
0,
0,
0,
0,
0,
0,
0,
0,
0,
0,
0,
0,
0,
0,
0,
0,
0,
0,
0,
#ENDOFDATA   :