File: N132962/Standards/20 keV/RbI std.msa
#FORMAT      : EMSA/MAS Spectral Data File
#VERSION     : 1.0
#TITLE       : RbI std
#DATE        : 21-MAR-2025
#TIME        : 14:36
#OWNER       : Unknown
#NPOINTS     : 4096
#NCOLUMNS    : 1
#XUNITS      : eV
#YUNITS      : counts
#DATATYPE    : Y
#XPERCHAN    : 9.99778
#OFFSET      : 1.69135
#BEAMKV      : 20
#SIGNALTYPE  : EDS
#ELEVANGLE   : 35
#AZIMANGLE   : 0
#LIVETIME    : 1198.57
#REALTIME    : 1310.76
#PROBECUR    : 1.02926
#TAUWIND     : 0
#TDEADLYR    : 0
#TACTLYR     : 0.045
#TALWIND     : 0.025
#CHOFFSET    : 0.0
#XLABEL      : Energy (eV)
#YLABEL      : Counts
#EDSDET      : SD
##SPECIMEN   : RbI std
##D2STDCMP   : RbI,(Rb:40.2444),(I:59.7556),5.0
##DET_HASH   : 12273538-fd48-a23f-0a19-f1e6fa85caef
##CALIB_HASH : 6abaa72c-aa41-8738-0be9-f592914732f3
##WORKING    : 15.0 mm
##SAMPLE     : <BulkSample id="1">\n<mOrientation id="2">\n<double>0.0</double>\n<double>0.0</double>\n<double>-1.0</double>\n</mOrientation>\n</BulkSample>
##MULTISPEC  : 1.11852
##DET_NAME   : EDAX All
##DET_MODE   : MediumLE
#SPECTRUM    :
131,
2977,
52733,
34309,
40297,
25954,
38100,
31570,
28645,
32613,
39080,
58646,
652049,
118835,
27607,
28677,
30891,
29385,
31305,
30338,
30590,
30468,
30133,
29933,
31553,
47623,
30210,
41770,
502817,
53414,
242406,
93403,
90813,
31711,
42298,
25185,
32628,
21317,
18096,
18012,
18284,
17598,
17417,
17369,
16647,
16910,
17407,
16094,
15318,
15195,
14986,
14673,
14116,
14799,
13874,
13254,
13146,
13439,
12958,
12448,
11912,
11892,
11514,
11013,
10758,
10518,
10215,
9927,
9793,
9614,
9066,
8895,
8711,
8304,
8048,
8001,
7746,
7442,
7202,
6897,
6689,
6571,
6448,
6196,
5843,
5687,
5383,
5382,
5148,
4966,
4745,
4482,
4408,
4230,
5162,
18172,
16030,
4285,
3458,
3338,
3188,
2963,
2797,
2639,
2602,
2623,
3626,
4642,
2624,
2178,
1896,
1745,
1685,
1662,
1532,
1463,
1353,
1297,
1251,
1148,
1051,
994,
946,
938,
900,
803,
716,
687,
577,
629,
497,
480,
435,
406,
351,
333,
236,
213,
190,
160,
99,
72,
58,
26,
19,
14,
14,
15,
17,
11,
14,
12,
10,
14,
11,
8,
10,
9,
10,
9,
8,
4,
7,
5,
7,
6,
3,
8,
5,
3,
3,
4,
8,
4,
3,
3,
5,
6,
7,
5,
3,
5,
4,
2,
6,
1,
3,
1,
1,
2,
2,
2,
2,
0,
0,
1,
1,
1,
2,
1,
1,
0,
0,
0,
1,
1,
1,
1,
0,
1,
2,
0,
0,
0,
1,
1,
0,
0,
0,
0,
1,
1,
1,
0,
0,
0,
0,
0,
1,
0,
0,
0,
1,
0,
0,
0,
1,
0,
0,
0,
0,
0,
0,
0,
0,
0,
0,
0,
0,
0,
0,
0,
0,
0,
0,
0,
0,
0,
0,
0,
0,
0,
0,
0,
0,
0,
0,
0,
0,
0,
0,
0,
0,
0,
0,
0,
0,
0,
0,
0,
0,
0,
0,
0,
0,
0,
0,
0,
0,
0,
0,
0,
0,
0,
#ENDOFDATA   :