File: N132962/Standards/20 keV/Re std.msa
#FORMAT      : EMSA/MAS Spectral Data File
#VERSION     : 1.0
#TITLE       : Re std
#DATE        : 20-FEB-2025
#TIME        : 17:14
#OWNER       : Unknown
#NPOINTS     : 4096
#NCOLUMNS    : 1
#XUNITS      : eV
#YUNITS      : counts
#DATATYPE    : Y
#XPERCHAN    : 9.99778
#OFFSET      : 1.69135
#BEAMKV      : 20
#SIGNALTYPE  : EDS
#ELEVANGLE   : 35
#AZIMANGLE   : 0
#LIVETIME    : 951.7897
#REALTIME    : 1069.19
#PROBECUR    : 1.04992
#TAUWIND     : 0
#TDEADLYR    : 0
#TACTLYR     : 0.045
#TALWIND     : 0.025
#CHOFFSET    : 0.0
#XLABEL      : Energy (eV)
#YLABEL      : Counts
#EDSDET      : SD
##SPECIMEN   : Re std
##D2STDCMP   : Re,(Re:100.0),5.0
##DET_HASH   : 12273538-fd48-a23f-0a19-f1e6fa85caef
##CALIB_HASH : 6abaa72c-aa41-8738-0be9-f592914732f3
##WORKING    : 15.0 mm
##SAMPLE     : <BulkSample id="1">\n<mOrientation id="2">\n<double>0.0</double>\n<double>0.0</double>\n<double>-1.0</double>\n</mOrientation>\n</BulkSample>
##MULTISPEC  : 1.62878
##DET_NAME   : EDAX All
##DET_MODE   : MediumLE
#SPECTRUM    :
97,
5020,
35205,
22841,
32055,
35512,
36090,
38387,
42759,
47325,
105661,
57213,
68568,
1047564,
194832,
44308,
21313,
26322,
21378,
20510,
20512,
21243,
21052,
21853,
21986,
22382,
24338,
24399,
22594,
23000,
22494,
22706,
22787,
22272,
22266,
22317,
22122,
21769,
22521,
23761,
20734,
20390,
20629,
19935,
19283,
21788,
27323,
18356,
17919,
17827,
18551,
17261,
16653,
17901,
23507,
18213,
15493,
14883,
14786,
14775,
15232,
68899,
159587,
19675,
14056,
13112,
12059,
11697,
11657,
11831,
17310,
51334,
45475,
38673,
24118,
11491,
9232,
8346,
7981,
7744,
7799,
7732,
7713,
14105,
11887,
8037,
8685,
6921,
5843,
6082,
5486,
5279,
5037,
4963,
4714,
4551,
4480,
4345,
4031,
3881,
3672,
3712,
3543,
3377,
3237,
3167,
2913,
2872,
2631,
2508,
2453,
2337,
2279,
2126,
2051,
1974,
1866,
1741,
1762,
1540,
1436,
1399,
1362,
1303,
1280,
1147,
1047,
949,
924,
835,
698,
715,
620,
639,
515,
478,
388,
370,
297,
229,
210,
163,
91,
52,
43,
36,
24,
27,
20,
27,
27,
18,
17,
18,
14,
16,
16,
15,
15,
10,
9,
13,
11,
10,
13,
13,
10,
17,
10,
8,
9,
11,
13,
9,
9,
5,
14,
4,
9,
7,
7,
5,
8,
3,
6,
9,
2,
7,
9,
5,
5,
6,
2,
5,
2,
3,
4,
4,
3,
2,
2,
6,
1,
1,
1,
3,
3,
0,
2,
0,
0,
2,
3,
0,
1,
1,
0,
0,
2,
1,
2,
1,
0,
0,
0,
1,
0,
0,
1,
1,
2,
0,
0,
0,
0,
1,
0,
0,
0,
0,
0,
0,
1,
0,
0,
0,
0,
0,
0,
0,
0,
0,
0,
0,
0,
0,
0,
0,
0,
0,
0,
0,
0,
0,
0,
0,
0,
0,
0,
0,
0,
0,
0,
0,
0,
0,
0,
0,
0,
0,
0,
0,
0,
0,
0,
0,
0,
0,
0,
0,
0,
0,
0,
0,
#ENDOFDATA   :