File: N132962/Standards/20 keV/Rh std.msa
#FORMAT      : EMSA/MAS Spectral Data File
#VERSION     : 1.0
#TITLE       : G588 Rh[0][all]+G588 Rh[1][all]+G588 Rh[2][all]+G588 Rh[3][all]+G588 Rh[4][all]
#NPOINTS     : 4096
#NCOLUMNS    : 1
#XUNITS      : eV
#YUNITS      : counts
#DATATYPE    : Y
#SIGNALTYPE  : EDS
#XLABEL      : Energy (eV)
#YLABEL      : Counts
#XPERCHAN -eV: 9.99778
#OFFSET   -eV: 1.69135
#CHOFFSET    : 0
#OWNER       : Unknown
#ELEVANGLE   : 35
#BEAMKV   -kV: 20
#LIVETIME  -s: 1200.9
#REALTIME  -s: 1339.39
#PROBECUR -nA: 1.04548
##WORKING -mm: 15
##D2STDCMP   : Rh,(Rh:100.0000),5.000
#SPECTRUM    :
148,
8983,
229400,
18046,
20306,
24660,
28603,
50554,
44143,
42470,
45064,
47218,
49874,
51499,
46264,
47579,
48309,
105941,
73455,
1095214,
580866,
209850,
63479,
29586,
33659,
20563,
20732,
21192,
21325,
21219,
21406,
21358,
21232,
21187,
21029,
20886,
20607,
20450,
21632,
23205,
21187,
19840,
19269,
18645,
18129,
18706,
21526,
16882,
16554,
15978,
16173,
15668,
15009,
15791,
14917,
14024,
13779,
13292,
13187,
13003,
12387,
12210,
12142,
11377,
11244,
11038,
10471,
10365,
10142,
9854,
9617,
9363,
8972,
8685,
8406,
8373,
8016,
7602,
7455,
7259,
7049,
6843,
6607,
6472,
6156,
5997,
5841,
5477,
5250,
5189,
4930,
4566,
4575,
4388,
4196,
4119,
3932,
3847,
3559,
3465,
3162,
3082,
2929,
2803,
2698,
2522,
2468,
2333,
2264,
2072,
2070,
1904,
1812,
1717,
1594,
1491,
1457,
1362,
1284,
1275,
1113,
1112,
1006,
963,
912,
819,
751,
747,
647,
630,
562,
481,
429,
409,
332,
305,
264,
236,
194,
163,
122,
91,
66,
23,
23,
11,
13,
10,
15,
18,
7,
9,
7,
12,
9,
9,
4,
3,
5,
8,
8,
6,
8,
1,
5,
3,
5,
3,
6,
5,
3,
3,
6,
2,
5,
1,
3,
4,
6,
2,
4,
3,
3,
0,
1,
0,
3,
3,
0,
1,
1,
1,
2,
0,
1,
2,
1,
1,
2,
1,
3,
1,
0,
0,
1,
0,
1,
1,
0,
1,
0,
1,
0,
1,
0,
0,
0,
0,
0,
0,
0,
0,
1,
3,
0,
1,
0,
0,
0,
0,
0,
0,
0,
0,
0,
0,
0,
0,
0,
0,
0,
0,
0,
0,
0,
0,
0,
0,
1,
0,
0,
0,
0,
0,
0,
0,
0,
0,
0,
0,
0,
0,
0,
0,
0,
0,
0,
0,
0,
0,
0,
0,
0,
0,
0,
0,
0,
0,
0,
0,
0,
0,
0,
0,
0,
0,
0,
0,
0,
0,
0,
0,
0,
0,
#ENDOFDATA   :