File: N132962/Standards/20 keV/Ru std.msa
#FORMAT      : EMSA/MAS Spectral Data File
#VERSION     : 1.0
#TITLE       : Ru std
#DATE        : 25-SEP-2025
#TIME        : 15:15
#OWNER       : Unknown
#NPOINTS     : 4096
#NCOLUMNS    : 1
#XUNITS      : eV
#YUNITS      : counts
#DATATYPE    : Y
#XPERCHAN    : 9.99778
#OFFSET      : 1.69135
#BEAMKV      : 20
#SIGNALTYPE  : EDS
#ELEVANGLE   : 35
#AZIMANGLE   : 0
#LIVETIME    : 961.318
#REALTIME    : 1090.15
#PROBECUR    : 1.18489
#TAUWIND     : 0
#TDEADLYR    : 0
#TACTLYR     : 0.045
#TALWIND     : 0.025
#CHOFFSET    : 0.0
#XLABEL      : Energy (eV)
#YLABEL      : Counts
#EDSDET      : SD
##SPECIMEN   : Ru std
##D2STDCMP   : Ru,(Ru:100.0),5.0
##DET_HASH   : 12273538-fd48-a23f-0a19-f1e6fa85caef
##CALIB_HASH : 6abaa72c-aa41-8738-0be9-f592914732f3
##WORKING    : 15.0 mm
##SAMPLE     : <BulkSample id="1">\n<mOrientation id="2">\n<double>0.0</double>\n<double>0.0</double>\n<double>-1.0</double>\n</mOrientation>\n</BulkSample>
##MULTISPEC  : 2.13394
##DET_NAME   : EDAX All
##DET_MODE   : MediumLE
#SPECTRUM    :
106,
10656,
104953,
16112,
17741,
21140,
45890,
35961,
34989,
39351,
42014,
43881,
46849,
48027,
42569,
43967,
98337,
73206,
1018009,
652955,
172710,
48895,
21510,
26808,
18354,
19070,
19766,
19686,
19952,
20330,
20220,
19841,
22016,
19920,
19655,
19835,
20300,
21665,
20341,
18779,
17981,
17492,
17214,
16735,
16434,
16580,
17263,
15518,
14874,
14742,
14721,
14091,
13547,
14033,
13397,
12600,
12582,
12362,
12048,
11642,
11293,
10930,
10729,
10396,
10121,
9889,
9778,
9185,
8945,
8849,
8803,
8262,
8249,
8036,
7696,
7390,
7159,
7017,
6914,
6454,
6415,
6103,
5942,
5709,
5389,
5399,
5223,
4907,
4628,
4602,
4413,
4177,
3976,
3936,
3863,
3492,
3531,
3402,
3089,
2928,
3077,
2809,
2721,
2529,
2510,
2317,
2204,
2107,
1978,
1953,
1864,
1737,
1655,
1575,
1431,
1431,
1338,
1300,
1161,
1042,
1061,
982,
885,
837,
774,
731,
657,
643,
594,
498,
473,
442,
398,
344,
356,
292,
231,
208,
182,
150,
98,
70,
50,
38,
27,
12,
9,
10,
7,
11,
10,
10,
13,
9,
12,
7,
12,
12,
6,
4,
3,
3,
8,
5,
3,
3,
5,
2,
1,
4,
4,
3,
3,
2,
3,
7,
4,
4,
2,
2,
2,
2,
1,
2,
4,
5,
1,
4,
2,
1,
0,
1,
1,
1,
0,
1,
0,
0,
3,
0,
0,
1,
0,
0,
1,
2,
2,
1,
0,
2,
1,
0,
0,
0,
0,
0,
0,
0,
0,
1,
0,
0,
1,
1,
0,
1,
0,
0,
1,
0,
1,
0,
0,
0,
0,
1,
0,
0,
0,
1,
0,
0,
0,
0,
0,
0,
0,
0,
0,
0,
0,
0,
0,
1,
0,
0,
0,
0,
0,
0,
0,
0,
0,
0,
1,
0,
0,
0,
0,
0,
0,
0,
0,
0,
0,
0,
0,
0,
0,
0,
0,
0,
0,
0,
0,
0,
0,
0,
0,
0,
0,
0,
0,
0,
#ENDOFDATA   :