File: N132962/Standards/20 keV/Sb std.msa
#FORMAT      : EMSA/MAS Spectral Data File
#VERSION     : 1.0
#TITLE       : Sb std
#DATE        : 20-FEB-2025
#TIME        : 13:08
#OWNER       : Unknown
#NPOINTS     : 4096
#NCOLUMNS    : 1
#XUNITS      : eV
#YUNITS      : counts
#DATATYPE    : Y
#XPERCHAN    : 9.99778
#OFFSET      : 1.69135
#BEAMKV      : 20
#SIGNALTYPE  : EDS
#ELEVANGLE   : 35
#AZIMANGLE   : 0
#LIVETIME    : 1206.72
#REALTIME    : 1338.39
#PROBECUR    : 1.04644
#TAUWIND     : 0
#TDEADLYR    : 0
#TACTLYR     : 0.045
#TALWIND     : 0.025
#CHOFFSET    : 0.0
#XLABEL      : Energy (eV)
#YLABEL      : Counts
#EDSDET      : SD
##SPECIMEN   : Sb std
##D2STDCMP   : Sb,(Sb:100.0),5.0
##DET_HASH   : 12273538-fd48-a23f-0a19-f1e6fa85caef
##CALIB_HASH : 6abaa72c-aa41-8738-0be9-f592914732f3
##WORKING    : 15.0 mm
##SAMPLE     : <BulkSample id="1">\n<mOrientation id="2">\n<double>0.0</double>\n<double>0.0</double>\n<double>-1.0</double>\n</mOrientation>\n</BulkSample>
##MULTISPEC  : 1.23171
##DET_NAME   : EDAX All
##DET_MODE   : MediumLE
#SPECTRUM    :
137,
8976,
71484,
273490,
43185,
31487,
24785,
22433,
26170,
30185,
34252,
37407,
40719,
49925,
39308,
45241,
41130,
42151,
40441,
41026,
40013,
39632,
41441,
70964,
43045,
138188,
857571,
223866,
316665,
137057,
50959,
71097,
25160,
40720,
20161,
19098,
19300,
19142,
19535,
19988,
18923,
18847,
18763,
18552,
18248,
19002,
21732,
17105,
16910,
16741,
16890,
16434,
16579,
17395,
16062,
15157,
14742,
14187,
13812,
13720,
13085,
12763,
12589,
12301,
11885,
11642,
11584,
10974,
10827,
10557,
10221,
10140,
9769,
9619,
9368,
8965,
8638,
8410,
8142,
7905,
7819,
7398,
7217,
6981,
6775,
6472,
6321,
6059,
5961,
5717,
5428,
5207,
4893,
4867,
4611,
4589,
4339,
4021,
4036,
3787,
3704,
3549,
3309,
3210,
3078,
2791,
2747,
2705,
2513,
2433,
2264,
2231,
2090,
1949,
1798,
1690,
1614,
1603,
1502,
1401,
1279,
1237,
1191,
1077,
987,
906,
857,
850,
761,
740,
643,
562,
525,
476,
427,
376,
347,
289,
226,
178,
151,
139,
75,
18,
26,
19,
12,
15,
21,
16,
16,
10,
14,
20,
7,
7,
4,
9,
6,
9,
7,
3,
7,
6,
2,
5,
3,
10,
8,
7,
5,
5,
3,
2,
5,
4,
0,
4,
4,
8,
3,
9,
1,
3,
0,
2,
2,
2,
4,
1,
0,
1,
1,
2,
0,
2,
3,
0,
0,
0,
2,
1,
0,
3,
3,
1,
1,
0,
0,
2,
0,
1,
0,
0,
1,
0,
0,
0,
0,
0,
0,
0,
1,
0,
1,
0,
0,
0,
0,
0,
0,
0,
1,
0,
0,
1,
1,
1,
0,
0,
0,
0,
1,
0,
0,
0,
0,
0,
0,
0,
0,
0,
0,
0,
0,
0,
0,
0,
0,
0,
0,
0,
0,
0,
0,
0,
0,
0,
0,
0,
0,
0,
0,
0,
0,
0,
0,
0,
0,
0,
0,
0,
0,
0,
0,
0,
0,
0,
0,
0,
0,
0,
0,
0,
#ENDOFDATA   :