File: N132962/Standards/20 keV/Sc std.msa
#FORMAT      : EMSA/MAS Spectral Data File
#VERSION     : 1.0
#TITLE       : Sc std
#DATE        : 20-FEB-2025
#TIME        : 16:15
#OWNER       : Unknown
#NPOINTS     : 4096
#NCOLUMNS    : 1
#XUNITS      : eV
#YUNITS      : counts
#DATATYPE    : Y
#XPERCHAN    : 9.99778
#OFFSET      : 1.69135
#BEAMKV      : 20
#SIGNALTYPE  : EDS
#ELEVANGLE   : 35
#AZIMANGLE   : 0
#LIVETIME    : 1199.48
#REALTIME    : 1320.01
#PROBECUR    : 1.04971
#TAUWIND     : 0
#TDEADLYR    : 0
#TACTLYR     : 0.045
#TALWIND     : 0.025
#CHOFFSET    : 0.0
#XLABEL      : Energy (eV)
#YLABEL      : Counts
#EDSDET      : SD
##SPECIMEN   : Sc std
##D2STDCMP   : Sc,(Sc:100.0)
##DET_HASH   : 12273538-fd48-a23f-0a19-f1e6fa85caef
##CALIB_HASH : 6abaa72c-aa41-8738-0be9-f592914732f3
##WORKING    : 15.0 mm
##SAMPLE     : <BulkSample id="1">\n<mOrientation id="2">\n<double>0.0</double>\n<double>0.0</double>\n<double>-1.0</double>\n</mOrientation>\n</BulkSample>
##MULTISPEC  : 17.6968
##DET_NAME   : EDAX All
##DET_MODE   : MediumLE
#SPECTRUM    :
146,
1808,
103775,
65552,
16573,
18745,
16568,
19550,
22455,
26208,
28810,
32237,
33593,
33504,
29011,
28827,
30039,
42244,
27035,
26983,
25261,
23909,
23280,
22746,
22458,
22076,
21296,
20373,
39435,
1824129,
196300,
42124,
265275,
12423,
10007,
9949,
9906,
9694,
9648,
9617,
9403,
9186,
9329,
8931,
8507,
8905,
9576,
7974,
7877,
7682,
7769,
7421,
7077,
7269,
6858,
6633,
6319,
6281,
8639,
8092,
5777,
6683,
5540,
5307,
5289,
4960,
4837,
4718,
4566,
4511,
4310,
4197,
3943,
4074,
3767,
3648,
3455,
3386,
3264,
3208,
3042,
2839,
2804,
2701,
2654,
2566,
2375,
2234,
2186,
2102,
2078,
2011,
1869,
1884,
1742,
1597,
1616,
1509,
1421,
1280,
1356,
1215,
1245,
1146,
1059,
988,
954,
902,
854,
801,
796,
718,
679,
684,
648,
549,
577,
512,
465,
423,
435,
386,
385,
304,
345,
267,
229,
252,
226,
216,
155,
160,
144,
121,
113,
99,
81,
71,
55,
52,
33,
14,
15,
9,
7,
6,
4,
4,
8,
5,
5,
3,
0,
2,
3,
3,
3,
4,
3,
2,
5,
3,
2,
2,
3,
1,
1,
0,
2,
1,
1,
2,
0,
2,
0,
0,
0,
0,
3,
1,
0,
0,
0,
0,
1,
1,
1,
0,
1,
0,
0,
0,
0,
0,
1,
0,
0,
0,
0,
0,
0,
0,
0,
0,
1,
0,
0,
0,
1,
0,
0,
1,
0,
0,
0,
0,
0,
0,
0,
0,
0,
0,
0,
0,
0,
0,
0,
0,
0,
0,
0,
0,
0,
0,
0,
0,
0,
1,
0,
0,
0,
0,
0,
0,
0,
0,
0,
0,
0,
0,
0,
0,
0,
0,
0,
0,
0,
0,
0,
0,
0,
0,
0,
0,
0,
0,
0,
0,
0,
0,
0,
0,
0,
0,
0,
0,
0,
0,
0,
0,
0,
0,
0,
0,
0,
0,
0,
0,
0,
0,
0,
0,
0,
0,
#ENDOFDATA   :