File: N132962/Standards/20 keV/Si std.msa
#FORMAT      : EMSA/MAS Spectral Data File
#VERSION     : 1.0
#TITLE       : Si std
#DATE        : 20-FEB-2025
#TIME        : 16:09
#OWNER       : Unknown
#NPOINTS     : 4096
#NCOLUMNS    : 1
#XUNITS      : eV
#YUNITS      : counts
#DATATYPE    : Y
#XPERCHAN    : 9.99778
#OFFSET      : 1.69135
#BEAMKV      : 20
#SIGNALTYPE  : EDS
#ELEVANGLE   : 35
#AZIMANGLE   : 0
#LIVETIME    : 1201.07
#REALTIME    : 1374.47
#PROBECUR    : 1.04971
#TAUWIND     : 0
#TDEADLYR    : 0
#TACTLYR     : 0.045
#TALWIND     : 0.025
#CHOFFSET    : 0.0
#XLABEL      : Energy (eV)
#YLABEL      : Counts
#EDSDET      : SD
##SPECIMEN   : Si std
##D2STDCMP   : Si,(Si:100.0),2.95
##DET_HASH   : 12273538-fd48-a23f-0a19-f1e6fa85caef
##CALIB_HASH : 6abaa72c-aa41-8738-0be9-f592914732f3
##WORKING    : 15.0 mm
##SAMPLE     : <BulkSample id="1">\n<mOrientation id="2">\n<double>0.0</double>\n<double>0.0</double>\n<double>-1.0</double>\n</mOrientation>\n</BulkSample>
##MULTISPEC  : 1.50409
##DET_NAME   : EDAX All
##DET_MODE   : MediumLE
#SPECTRUM    :
121,
1281,
14875,
12126,
20430,
26856,
33130,
37095,
39784,
41701,
47126,
62707,
1789460,
761903,
9726,
9349,
10188,
10879,
11185,
11528,
11718,
11730,
11798,
12046,
13463,
53076,
11865,
10312,
10214,
9891,
9688,
9333,
9196,
8864,
8705,
8547,
8100,
7985,
7944,
7693,
7163,
7006,
6827,
6686,
6358,
6328,
6833,
5831,
5678,
5488,
5268,
5259,
4925,
5063,
4703,
4567,
4337,
4275,
4079,
3973,
3799,
3725,
3572,
3452,
3447,
3228,
3075,
2923,
2958,
2823,
2739,
2579,
2559,
2462,
2416,
2372,
2178,
2125,
2096,
1969,
1848,
1861,
1751,
1703,
1629,
1623,
1486,
1483,
1339,
1224,
1222,
1175,
1184,
1092,
1023,
1023,
889,
937,
814,
852,
808,
660,
723,
633,
627,
587,
534,
540,
485,
444,
449,
434,
402,
387,
368,
357,
295,
301,
271,
251,
215,
249,
193,
198,
170,
159,
164,
122,
118,
118,
96,
85,
87,
75,
56,
59,
39,
31,
37,
25,
26,
11,
3,
2,
0,
3,
1,
3,
0,
1,
1,
1,
0,
2,
1,
0,
0,
1,
0,
0,
0,
0,
0,
0,
1,
0,
0,
1,
1,
0,
0,
0,
0,
0,
0,
0,
0,
0,
0,
0,
0,
0,
0,
0,
0,
0,
0,
0,
0,
0,
0,
0,
0,
0,
0,
0,
0,
0,
0,
0,
0,
0,
0,
0,
0,
0,
0,
0,
0,
0,
0,
0,
0,
0,
0,
0,
0,
0,
0,
0,
0,
0,
0,
0,
0,
0,
0,
0,
0,
0,
0,
0,
0,
0,
0,
0,
0,
1,
0,
0,
0,
0,
0,
0,
0,
0,
0,
0,
0,
0,
0,
0,
0,
0,
0,
0,
0,
0,
0,
0,
0,
0,
0,
0,
0,
0,
0,
0,
0,
0,
0,
0,
0,
0,
0,
0,
0,
0,
0,
0,
0,
0,
0,
0,
0,
0,
0,
0,
0,
0,
0,
0,
0,
0,
#ENDOFDATA   :