File: N132962/Standards/20 keV/SiO2 std.msa
#FORMAT      : EMSA/MAS Spectral Data File
#VERSION     : 1.0
#TITLE       : SiO2 std
#DATE        : 12-SEP-2025
#TIME        : 09:34
#OWNER       : Unknown
#NPOINTS     : 4096
#NCOLUMNS    : 1
#XUNITS      : eV
#YUNITS      : counts
#DATATYPE    : Y
#XPERCHAN    : 9.99778
#OFFSET      : 1.69135
#BEAMKV      : 20
#SIGNALTYPE  : EDS
#ELEVANGLE   : 35
#AZIMANGLE   : 0
#LIVETIME    : 1201.05
#REALTIME    : 1311.88
#PROBECUR    : 1.23853
#TAUWIND     : 0
#TDEADLYR    : 0
#TACTLYR     : 0.045
#TALWIND     : 0.025
#CHOFFSET    : 0.0
#XLABEL      : Energy (eV)
#YLABEL      : Counts
#EDSDET      : SD
##SPECIMEN   : SiO2 std
##D2STDCMP   : SiO2,(O:53.2565),(Si:46.7435),5.0
##DET_HASH   : 12273538-fd48-a23f-0a19-f1e6fa85caef
##CALIB_HASH : 6abaa72c-aa41-8738-0be9-f592914732f3
##WORKING    : 15.0 mm
##SAMPLE     : <BulkSample id="1">\n<mOrientation id="2">\n<double>0.0</double>\n<double>0.0</double>\n<double>-1.0</double>\n</mOrientation>\n</BulkSample>
##MULTISPEC  : 0.87792
##DET_NAME   : EDAX All
##DET_MODE   : MediumLE
#SPECTRUM    :
118,
1095,
32913,
43780,
417791,
13592,
15392,
18821,
21224,
24000,
28326,
36655,
794446,
356836,
11770,
12151,
21828,
12928,
12603,
12355,
12421,
12225,
11958,
11732,
11863,
19717,
10775,
10291,
9897,
9424,
9203,
8798,
8641,
8423,
8193,
7873,
7522,
7152,
7120,
6762,
6517,
6472,
5909,
5858,
5781,
5523,
5994,
5197,
4978,
4739,
4616,
4403,
4298,
4356,
4093,
3982,
3711,
3667,
3519,
3350,
3295,
3170,
3088,
2913,
2886,
2830,
2607,
2643,
2451,
2462,
2219,
2257,
2199,
2076,
2009,
1930,
1880,
1794,
1691,
1625,
1567,
1552,
1466,
1365,
1298,
1275,
1270,
1180,
1135,
1076,
1032,
954,
897,
849,
859,
798,
782,
737,
695,
630,
649,
607,
542,
534,
555,
459,
435,
435,
379,
389,
348,
324,
317,
311,
257,
272,
223,
220,
183,
187,
178,
171,
153,
141,
130,
148,
105,
100,
107,
71,
79,
71,
70,
49,
48,
36,
30,
27,
27,
21,
16,
4,
3,
2,
1,
0,
1,
0,
0,
1,
0,
1,
0,
1,
0,
1,
0,
0,
0,
0,
0,
0,
0,
1,
0,
0,
1,
0,
0,
0,
0,
0,
1,
0,
1,
0,
0,
0,
0,
1,
0,
0,
0,
0,
0,
0,
0,
0,
0,
0,
0,
0,
0,
0,
0,
0,
0,
0,
0,
0,
0,
0,
0,
0,
0,
0,
0,
0,
0,
0,
0,
1,
0,
0,
0,
0,
0,
0,
0,
0,
0,
0,
0,
0,
0,
0,
0,
0,
0,
0,
0,
0,
0,
0,
0,
0,
0,
0,
0,
0,
0,
0,
0,
0,
0,
0,
0,
0,
0,
0,
0,
0,
0,
0,
0,
0,
0,
0,
0,
0,
0,
0,
0,
0,
0,
0,
0,
0,
0,
0,
0,
0,
0,
0,
0,
0,
0,
0,
0,
0,
0,
0,
0,
0,
0,
0,
0,
0,
0,
0,
0,
0,
0,
0,
#ENDOFDATA   :