File: N132962/Standards/20 keV/Sm2O3 std.msa
#FORMAT      : EMSA/MAS Spectral Data File
#VERSION     : 1.0
#TITLE       : Sm2O3 std
#DATE        : 12-SEP-2025
#TIME        : 11:18
#OWNER       : Unknown
#NPOINTS     : 4096
#NCOLUMNS    : 1
#XUNITS      : eV
#YUNITS      : counts
#DATATYPE    : Y
#XPERCHAN    : 9.99778
#OFFSET      : 1.69135
#BEAMKV      : 20
#SIGNALTYPE  : EDS
#ELEVANGLE   : 35
#AZIMANGLE   : 0
#LIVETIME    : 1200.5
#REALTIME    : 1318.22
#PROBECUR    : 1.23977
#TAUWIND     : 0
#TDEADLYR    : 0
#TACTLYR     : 0.045
#TALWIND     : 0.025
#CHOFFSET    : 0.0
#XLABEL      : Energy (eV)
#YLABEL      : Counts
#EDSDET      : SD
##SPECIMEN   : Sm2O3 std
##D2STDCMP   : Sm2O3,(O:13.7639),(Sm:86.2361),5.0
##DET_HASH   : 12273538-fd48-a23f-0a19-f1e6fa85caef
##CALIB_HASH : 6abaa72c-aa41-8738-0be9-f592914732f3
##WORKING    : 15.0 mm
##SAMPLE     : <BulkSample id="1">\n<mOrientation id="2">\n<double>0.0</double>\n<double>0.0</double>\n<double>-1.0</double>\n</mOrientation>\n</BulkSample>
##MULTISPEC  : 9.27722
##DET_NAME   : EDAX All
##DET_MODE   : MediumLE
#SPECTRUM    :
116,
2863,
89440,
64218,
265635,
75873,
170337,
57892,
158905,
44057,
40386,
30018,
31601,
31278,
28912,
29693,
31264,
31806,
32288,
33041,
32523,
32751,
32190,
31743,
31405,
30868,
30346,
30282,
31237,
28700,
28201,
27694,
27481,
26285,
25585,
29889,
36990,
24714,
24290,
31138,
410406,
93047,
22607,
23776,
181690,
103504,
33059,
94939,
24077,
16049,
17600,
41150,
21039,
23422,
18195,
15090,
12743,
12056,
12294,
11936,
11599,
11318,
11287,
10790,
10623,
10286,
10301,
10147,
9829,
9823,
9246,
8957,
8768,
8401,
8361,
8147,
8015,
7684,
7567,
7188,
7110,
7054,
6357,
6278,
6294,
6180,
5789,
5490,
5275,
5073,
4905,
4718,
4515,
4400,
4176,
4024,
3982,
3770,
3596,
3347,
3221,
3141,
2993,
2896,
2722,
2682,
2463,
2366,
2132,
2070,
1993,
1918,
1820,
1719,
1614,
1502,
1374,
1318,
1292,
1187,
1088,
1083,
976,
833,
859,
774,
704,
624,
617,
545,
460,
457,
376,
383,
336,
252,
237,
199,
156,
115,
67,
55,
36,
13,
14,
8,
14,
10,
11,
19,
15,
6,
12,
7,
7,
10,
6,
12,
9,
9,
7,
8,
8,
7,
13,
2,
4,
3,
5,
3,
5,
3,
5,
3,
1,
7,
6,
3,
1,
4,
3,
1,
3,
5,
1,
4,
3,
3,
2,
2,
2,
1,
3,
1,
1,
1,
0,
2,
1,
0,
0,
1,
1,
0,
1,
1,
1,
1,
0,
0,
0,
1,
0,
0,
0,
0,
0,
0,
0,
0,
0,
0,
0,
1,
0,
0,
1,
0,
0,
0,
1,
0,
0,
0,
0,
0,
0,
0,
1,
0,
0,
0,
0,
0,
0,
0,
0,
0,
0,
0,
0,
0,
0,
0,
0,
0,
0,
0,
0,
0,
0,
0,
0,
0,
0,
0,
0,
0,
0,
0,
0,
0,
0,
0,
0,
0,
1,
0,
0,
0,
0,
0,
0,
0,
0,
0,
0,
0,
0,
0,
0,
0,
0,
0,
#ENDOFDATA   :