File: N132962/Standards/20 keV/Sn std.msa
#FORMAT      : EMSA/MAS Spectral Data File
#VERSION     : 1.0
#TITLE       : G588 Sn[0][all]+G588 Sn[1][all]+G588 Sn[2][all]+G588 Sn[3][all]+G588 Sn[4][all]
#NPOINTS     : 4096
#NCOLUMNS    : 1
#XUNITS      : eV
#YUNITS      : counts
#DATATYPE    : Y
#SIGNALTYPE  : EDS
#XLABEL      : Energy (eV)
#YLABEL      : Counts
#XPERCHAN -eV: 9.99778
#OFFSET   -eV: 1.69135
#CHOFFSET    : 0
#OWNER       : Unknown
#ELEVANGLE   : 35
#BEAMKV   -kV: 20
#LIVETIME  -s: 1198.92
#REALTIME  -s: 1331.78
#PROBECUR -nA: 1.0449
##WORKING -mm: 15
##D2STDCMP   : Sn,(Sn:100.0000),5.000
#SPECTRUM    :
148,
8206,
73278,
172422,
30008,
32990,
23161,
23092,
27272,
31624,
35468,
41265,
54994,
44940,
44232,
41470,
41892,
42269,
41353,
41281,
40650,
43471,
73272,
48494,
257722,
604426,
479257,
175660,
173526,
43087,
41147,
38071,
23082,
19280,
19646,
19649,
19791,
19790,
19569,
19736,
19174,
18768,
18663,
18381,
18123,
18843,
20492,
17361,
16952,
17589,
17235,
17477,
16442,
16810,
15839,
14824,
14503,
13967,
13591,
13194,
13057,
12560,
12071,
12251,
11853,
11480,
11201,
11158,
10609,
10625,
10102,
9955,
9611,
9126,
9195,
8699,
8497,
8250,
8117,
7758,
7560,
7428,
7102,
6828,
6557,
6609,
6088,
6044,
5785,
5524,
5327,
5100,
5052,
4814,
4581,
4306,
4178,
4066,
3819,
3732,
3639,
3453,
3309,
3146,
2979,
2836,
2763,
2641,
2460,
2274,
2234,
2067,
2051,
1912,
1728,
1706,
1634,
1548,
1480,
1365,
1319,
1152,
1104,
1073,
945,
899,
831,
814,
729,
660,
569,
524,
488,
469,
394,
338,
280,
270,
222,
158,
147,
112,
57,
25,
16,
15,
15,
22,
17,
12,
16,
16,
17,
15,
16,
9,
12,
5,
9,
8,
7,
10,
4,
8,
6,
6,
2,
6,
8,
2,
2,
3,
4,
4,
4,
3,
3,
4,
4,
1,
5,
2,
6,
4,
0,
2,
1,
3,
2,
6,
5,
1,
4,
2,
2,
1,
4,
0,
2,
2,
0,
1,
1,
0,
2,
1,
1,
1,
0,
0,
2,
1,
1,
0,
0,
1,
1,
0,
1,
0,
0,
0,
1,
0,
0,
0,
0,
0,
1,
0,
0,
0,
0,
0,
1,
1,
1,
0,
0,
1,
0,
0,
0,
1,
0,
0,
0,
0,
0,
0,
0,
0,
0,
0,
0,
0,
0,
0,
0,
0,
0,
0,
0,
0,
0,
0,
0,
0,
0,
0,
0,
0,
0,
0,
0,
0,
0,
0,
0,
0,
0,
0,
0,
0,
0,
0,
0,
0,
0,
0,
0,
0,
0,
0,
#ENDOFDATA   :