File: N132962/Standards/20 keV/SrF2 std.msa
#FORMAT      : EMSA/MAS Spectral Data File
#VERSION     : 1.0
#TITLE       : SrF2 std
#DATE        : 03-MAR-2025
#TIME        : 16:45
#OWNER       : Unknown
#NPOINTS     : 4096
#NCOLUMNS    : 1
#XUNITS      : eV
#YUNITS      : counts
#DATATYPE    : Y
#XPERCHAN    : 9.99778
#OFFSET      : 1.69135
#BEAMKV      : 20
#SIGNALTYPE  : EDS
#ELEVANGLE   : 35
#AZIMANGLE   : 0
#LIVETIME    : 1197.65
#REALTIME    : 1297.93
#PROBECUR    : 1.06277
#TAUWIND     : 0
#TDEADLYR    : 0
#TACTLYR     : 0.045
#TALWIND     : 0.025
#CHOFFSET    : 0.0
#XLABEL      : Energy (eV)
#YLABEL      : Counts
#EDSDET      : SD
##SPECIMEN   : SrF2 std
##D2STDCMP   : SrF2,(F:30.2477),(Sr:69.7523)
##DET_HASH   : 12273538-fd48-a23f-0a19-f1e6fa85caef
##CALIB_HASH : 6abaa72c-aa41-8738-0be9-f592914732f3
##WORKING    : 15.01 mm
##SAMPLE     : <BulkSample id="1">\n<mOrientation id="2">\n<double>0.0</double>\n<double>0.0</double>\n<double>-1.0</double>\n</mOrientation>\n</BulkSample>
##MULTISPEC  : 1.58194
##DET_NAME   : EDAX All
##DET_MODE   : MediumLE
#SPECTRUM    :
2494,
7427,
39570,
15481,
30129,
333788,
22787,
25577,
30551,
34698,
37934,
70691,
76288,
1510721,
118354,
17098,
18602,
16448,
18751,
17494,
17611,
17763,
18014,
18085,
18264,
18198,
21565,
18323,
17374,
16901,
16333,
16227,
17649,
15658,
15369,
15139,
14356,
14114,
13804,
13594,
12972,
12625,
12423,
12065,
11605,
11533,
12027,
10687,
10297,
10068,
9827,
9577,
9136,
9654,
8989,
8539,
8287,
8095,
7791,
7770,
7422,
7188,
6829,
6641,
6466,
6313,
6027,
6067,
5845,
5661,
5560,
5434,
5186,
4980,
5010,
4675,
4470,
4390,
4246,
4047,
4075,
3858,
3719,
3479,
3451,
3239,
3244,
3010,
2823,
2851,
2723,
2539,
2426,
2420,
2241,
2167,
2181,
1922,
1939,
1915,
7015,
15971,
4849,
1674,
1451,
1374,
1324,
1201,
1097,
1121,
988,
947,
1472,
2781,
1475,
1019,
724,
681,
590,
576,
522,
508,
465,
432,
403,
398,
340,
322,
272,
283,
234,
216,
211,
162,
139,
141,
120,
91,
90,
54,
40,
27,
17,
6,
6,
2,
3,
2,
5,
3,
5,
4,
3,
0,
6,
3,
4,
1,
4,
0,
1,
2,
4,
5,
1,
0,
2,
1,
1,
3,
4,
2,
0,
0,
4,
4,
2,
1,
0,
1,
2,
2,
4,
2,
1,
1,
1,
0,
1,
2,
0,
0,
0,
1,
0,
0,
0,
1,
1,
0,
0,
0,
0,
0,
0,
0,
0,
1,
0,
0,
1,
1,
0,
0,
0,
0,
0,
0,
0,
0,
0,
0,
0,
0,
0,
0,
0,
0,
0,
0,
0,
0,
0,
0,
0,
0,
0,
0,
0,
0,
0,
0,
0,
0,
0,
0,
0,
0,
0,
0,
0,
0,
0,
0,
0,
0,
0,
0,
0,
0,
0,
0,
0,
0,
0,
0,
0,
0,
0,
0,
0,
0,
0,
0,
0,
0,
0,
0,
0,
0,
0,
0,
0,
0,
0,
0,
0,
0,
0,
0,
0,
0,
0,
0,
#ENDOFDATA   :