File: N132962/Standards/20 keV/SrTiO3 std.msa
#FORMAT      : EMSA/MAS Spectral Data File
#VERSION     : 1.0
#TITLE       : SrTiO3 std
#DATE        : 03-MAR-2025
#TIME        : 16:50
#OWNER       : Unknown
#NPOINTS     : 4096
#NCOLUMNS    : 1
#XUNITS      : eV
#YUNITS      : counts
#DATATYPE    : Y
#XPERCHAN    : 9.99778
#OFFSET      : 1.69135
#BEAMKV      : 20
#SIGNALTYPE  : EDS
#ELEVANGLE   : 35
#AZIMANGLE   : 0
#LIVETIME    : 1198.07
#REALTIME    : 1286.93
#PROBECUR    : 1.06277
#TAUWIND     : 0
#TDEADLYR    : 0
#TACTLYR     : 0.045
#TALWIND     : 0.025
#CHOFFSET    : 0.0
#XLABEL      : Energy (eV)
#YLABEL      : Counts
#EDSDET      : SD
##SPECIMEN   : SrTiO3 std
##D2STDCMP   : SrTiO3,(O:26.1592),(Ti:26.0877),(Sr:47.7532)
##DET_HASH   : 12273538-fd48-a23f-0a19-f1e6fa85caef
##CALIB_HASH : 6abaa72c-aa41-8738-0be9-f592914732f3
##WORKING    : 15.01 mm
##SAMPLE     : <BulkSample id="1">\n<mOrientation id="2">\n<double>0.0</double>\n<double>0.0</double>\n<double>-1.0</double>\n</mOrientation>\n</BulkSample>
##MULTISPEC  : 1.12628
##DET_NAME   : EDAX All
##DET_MODE   : MediumLE
#SPECTRUM    :
110,
2543,
40913,
47389,
80560,
15074,
19670,
22715,
26367,
30304,
33764,
54386,
55972,
1058908,
80424,
18512,
19885,
18234,
18302,
18743,
20934,
18306,
18400,
18502,
17754,
17681,
18941,
17460,
16737,
16114,
15901,
19890,
391080,
53902,
16079,
62828,
20148,
11714,
11489,
11500,
11187,
10785,
10573,
10340,
9970,
10922,
10683,
9157,
9151,
8887,
8442,
8405,
8128,
8246,
7846,
7506,
7257,
7061,
6930,
6701,
6453,
6135,
6147,
5875,
5795,
5598,
5278,
5253,
5160,
5028,
4836,
4559,
4523,
4440,
4193,
4195,
4003,
3781,
3654,
3596,
3435,
3276,
3288,
3012,
2936,
2798,
2721,
2520,
2447,
2385,
2327,
2215,
2209,
2055,
1945,
1882,
1767,
1785,
1712,
1750,
5004,
11156,
3484,
1402,
1206,
1104,
1063,
1041,
1007,
913,
906,
890,
1165,
2019,
1137,
744,
643,
514,
538,
510,
481,
426,
413,
388,
356,
337,
287,
252,
267,
202,
206,
181,
181,
135,
136,
115,
100,
96,
74,
60,
35,
24,
17,
9,
2,
6,
5,
3,
5,
5,
4,
2,
3,
3,
2,
3,
3,
3,
3,
1,
2,
2,
1,
1,
2,
0,
0,
0,
2,
0,
0,
1,
1,
1,
1,
0,
1,
0,
0,
1,
0,
2,
0,
0,
0,
0,
1,
1,
0,
0,
0,
0,
0,
1,
1,
1,
1,
0,
0,
1,
0,
0,
1,
0,
0,
0,
0,
0,
0,
0,
0,
0,
0,
0,
0,
0,
0,
0,
0,
0,
0,
0,
0,
0,
0,
0,
0,
0,
0,
0,
0,
0,
0,
0,
0,
1,
0,
0,
0,
0,
0,
0,
0,
0,
0,
0,
0,
0,
0,
0,
0,
0,
0,
0,
0,
0,
0,
0,
0,
0,
0,
0,
0,
0,
0,
0,
0,
0,
0,
0,
0,
0,
0,
0,
0,
0,
0,
0,
0,
0,
0,
0,
0,
0,
0,
0,
0,
0,
0,
0,
0,
0,
0,
0,
#ENDOFDATA   :