File: N132962/Standards/20 keV/Ta std.msa
#FORMAT      : EMSA/MAS Spectral Data File
#VERSION     : 1.0
#TITLE       : Ta std
#DATE        : 20-FEB-2025
#TIME        : 13:38
#OWNER       : Unknown
#NPOINTS     : 4096
#NCOLUMNS    : 1
#XUNITS      : eV
#YUNITS      : counts
#DATATYPE    : Y
#XPERCHAN    : 9.99778
#OFFSET      : 1.69135
#BEAMKV      : 20
#SIGNALTYPE  : EDS
#ELEVANGLE   : 35
#AZIMANGLE   : 0
#LIVETIME    : 959.9758
#REALTIME    : 1094.31
#PROBECUR    : 1.04693
#TAUWIND     : 0
#TDEADLYR    : 0
#TACTLYR     : 0.045
#TALWIND     : 0.025
#CHOFFSET    : 0.0
#XLABEL      : Energy (eV)
#YLABEL      : Counts
#EDSDET      : SD
##SPECIMEN   : Ta std
##D2STDCMP   : Ta,(Ta:100.0)
##DET_HASH   : 12273538-fd48-a23f-0a19-f1e6fa85caef
##CALIB_HASH : 6abaa72c-aa41-8738-0be9-f592914732f3
##WORKING    : 15.0 mm
##SAMPLE     : <BulkSample id="1">\n<mOrientation id="2">\n<double>0.0</double>\n<double>0.0</double>\n<double>-1.0</double>\n</mOrientation>\n</BulkSample>
##MULTISPEC  : 1.07566
##DET_NAME   : EDAX All
##DET_MODE   : MediumLE
#SPECTRUM    :
108,
2785,
37568,
22494,
33441,
37553,
42378,
46527,
51441,
73898,
78155,
64987,
1214794,
194992,
48498,
24100,
30094,
22814,
22729,
24091,
23607,
24213,
25496,
25289,
27681,
28716,
26033,
26082,
26303,
26003,
25633,
25573,
25439,
25151,
24887,
24514,
24060,
24114,
23854,
23634,
22829,
22550,
22076,
21775,
21354,
21965,
24035,
19764,
19510,
19126,
19692,
27482,
20367,
18615,
18027,
17343,
16826,
31999,
224003,
55679,
17437,
15152,
14296,
14094,
13898,
16580,
50330,
82470,
32848,
49273,
16687,
12236,
9938,
9866,
9462,
9587,
9615,
13056,
20104,
10424,
11984,
10045,
7745,
7942,
7113,
6686,
6500,
6443,
6208,
6007,
5844,
5531,
5348,
5354,
5034,
4861,
4554,
4457,
4408,
4157,
3991,
3968,
3918,
3571,
3399,
3381,
3158,
3010,
2928,
2728,
2595,
2491,
2390,
2325,
2195,
2064,
2055,
1850,
1765,
1610,
1594,
1501,
1428,
1253,
1312,
1241,
1131,
1102,
934,
878,
818,
755,
695,
671,
520,
510,
473,
395,
297,
295,
203,
190,
109,
41,
47,
34,
39,
27,
36,
30,
24,
19,
33,
24,
20,
27,
29,
17,
18,
16,
19,
23,
17,
12,
15,
13,
16,
12,
10,
6,
11,
11,
4,
10,
8,
10,
16,
16,
7,
9,
9,
7,
7,
6,
11,
12,
4,
8,
5,
4,
3,
7,
6,
6,
5,
3,
4,
0,
2,
3,
4,
5,
1,
2,
0,
4,
3,
0,
0,
1,
0,
0,
1,
1,
0,
0,
0,
2,
0,
1,
0,
0,
0,
0,
1,
0,
0,
1,
0,
0,
1,
0,
0,
0,
0,
0,
0,
0,
1,
0,
0,
1,
0,
1,
0,
0,
2,
0,
0,
0,
0,
0,
0,
0,
0,
0,
0,
0,
0,
0,
0,
0,
0,
0,
0,
0,
0,
0,
0,
0,
0,
0,
0,
0,
0,
0,
0,
0,
0,
0,
0,
0,
0,
0,
0,
0,
0,
0,
0,
0,
0,
0,
0,
0,
#ENDOFDATA   :