File: N132962/Standards/20 keV/Tb std.msa
#FORMAT      : EMSA/MAS Spectral Data File
#VERSION     : 1.0
#TITLE       : Tb std
#DATE        : 20-FEB-2025
#TIME        : 13:20
#OWNER       : Unknown
#NPOINTS     : 4096
#NCOLUMNS    : 1
#XUNITS      : eV
#YUNITS      : counts
#DATATYPE    : Y
#XPERCHAN    : 9.99778
#OFFSET      : 1.69135
#BEAMKV      : 20
#SIGNALTYPE  : EDS
#ELEVANGLE   : 35
#AZIMANGLE   : 0
#LIVETIME    : 1200.44
#REALTIME    : 1328.65
#PROBECUR    : 1.04644
#TAUWIND     : 0
#TDEADLYR    : 0
#TACTLYR     : 0.045
#TALWIND     : 0.025
#CHOFFSET    : 0.0
#XLABEL      : Energy (eV)
#YLABEL      : Counts
#EDSDET      : SD
##SPECIMEN   : Tb std
##D2STDCMP   : Tb,(Tb:100.0)
##DET_HASH   : 12273538-fd48-a23f-0a19-f1e6fa85caef
##CALIB_HASH : 6abaa72c-aa41-8738-0be9-f592914732f3
##WORKING    : 15.0 mm
##SAMPLE     : <BulkSample id="1">\n<mOrientation id="2">\n<double>0.0</double>\n<double>0.0</double>\n<double>-1.0</double>\n</mOrientation>\n</BulkSample>
##MULTISPEC  : 1.25029
##DET_NAME   : EDAX All
##DET_MODE   : MediumLE
#SPECTRUM    :
159,
2880,
53052,
40996,
70111,
87218,
67978,
215969,
76340,
381614,
37352,
35470,
34747,
29863,
27765,
28602,
30271,
31325,
32440,
33097,
33736,
33737,
34476,
34261,
34729,
34429,
34392,
33892,
33495,
33107,
32676,
32464,
33399,
31640,
30990,
30584,
29585,
29283,
29174,
34603,
41903,
27639,
27301,
27560,
114535,
455001,
36415,
24377,
24026,
65538,
227783,
57783,
59050,
74368,
20035,
16774,
18010,
24374,
43782,
18721,
26042,
16055,
15694,
13779,
13060,
12751,
12672,
12251,
12340,
12035,
11726,
11364,
11377,
10977,
10671,
10403,
10149,
9621,
9768,
9317,
9206,
8926,
8474,
8410,
7966,
7816,
7431,
7307,
7072,
7117,
6902,
6412,
6213,
5991,
5892,
5708,
5386,
5113,
4901,
4683,
4607,
4362,
4195,
3924,
3838,
3592,
3398,
3325,
3127,
2901,
2811,
2689,
2660,
2544,
2364,
2139,
2059,
1963,
1852,
1777,
1624,
1567,
1467,
1428,
1307,
1175,
1151,
1040,
983,
889,
852,
780,
705,
622,
548,
503,
426,
350,
256,
256,
174,
152,
87,
47,
39,
33,
28,
32,
30,
31,
25,
24,
19,
26,
22,
12,
21,
26,
30,
11,
14,
13,
11,
22,
12,
12,
13,
7,
11,
11,
9,
11,
6,
6,
7,
8,
8,
9,
4,
6,
13,
8,
6,
7,
8,
2,
6,
1,
5,
4,
4,
3,
3,
2,
1,
5,
2,
1,
2,
0,
3,
2,
1,
3,
1,
1,
3,
4,
0,
0,
2,
0,
2,
1,
1,
1,
2,
1,
2,
0,
1,
2,
1,
2,
2,
0,
0,
0,
0,
0,
0,
0,
0,
1,
0,
0,
0,
1,
0,
1,
0,
0,
0,
0,
0,
0,
0,
0,
0,
0,
0,
0,
0,
0,
0,
1,
0,
0,
0,
0,
0,
0,
1,
0,
0,
0,
0,
0,
0,
0,
0,
0,
0,
0,
0,
0,
0,
0,
0,
0,
0,
0,
0,
0,
0,
0,
0,
0,
0,
0,
0,
0,
0,
0,
#ENDOFDATA   :