File: N132962/Standards/20 keV/Te std.msa
#FORMAT      : EMSA/MAS Spectral Data File
#VERSION     : 1.0
#TITLE       : Te std
#DATE        : 20-FEB-2025
#TIME        : 13:02
#OWNER       : Unknown
#NPOINTS     : 4096
#NCOLUMNS    : 1
#XUNITS      : eV
#YUNITS      : counts
#DATATYPE    : Y
#XPERCHAN    : 9.99778
#OFFSET      : 1.69135
#BEAMKV      : 20
#SIGNALTYPE  : EDS
#ELEVANGLE   : 35
#AZIMANGLE   : 0
#LIVETIME    : 1193.24
#REALTIME    : 1322.52
#PROBECUR    : 1.04644
#TAUWIND     : 0
#TDEADLYR    : 0
#TACTLYR     : 0.045
#TALWIND     : 0.025
#CHOFFSET    : 0.0
#XLABEL      : Energy (eV)
#YLABEL      : Counts
#EDSDET      : SD
##SPECIMEN   : Te std
##D2STDCMP   : Te,(Te:100.0),5.0
##DET_HASH   : 12273538-fd48-a23f-0a19-f1e6fa85caef
##CALIB_HASH : 6abaa72c-aa41-8738-0be9-f592914732f3
##WORKING    : 15.0 mm
##SAMPLE     : <BulkSample id="1">\n<mOrientation id="2">\n<double>0.0</double>\n<double>0.0</double>\n<double>-1.0</double>\n</mOrientation>\n</BulkSample>
##MULTISPEC  : 1.25918
##DET_NAME   : EDAX All
##DET_MODE   : MediumLE
#SPECTRUM    :
133,
9226,
72222,
196738,
77314,
27666,
30626,
22504,
25213,
29019,
32578,
36447,
39230,
41161,
40611,
41181,
47839,
41439,
40546,
39751,
39560,
38521,
37865,
39197,
69928,
38633,
80208,
1006496,
79853,
484332,
87880,
139337,
34651,
53686,
32230,
28414,
19247,
18784,
19238,
19920,
18777,
18636,
18420,
18013,
17893,
18871,
21616,
16999,
16778,
16435,
16750,
16077,
15719,
16471,
16192,
15133,
15162,
14681,
14204,
13740,
13093,
12776,
12556,
12220,
11937,
11643,
11270,
10996,
10807,
10656,
10453,
10779,
9969,
9584,
9315,
8920,
8740,
8554,
8170,
7849,
7600,
7517,
7434,
7080,
6858,
6770,
6172,
6014,
6051,
5500,
5389,
5313,
4998,
4945,
4685,
4559,
4427,
4129,
4069,
3717,
3589,
3547,
3365,
3304,
3097,
2837,
2630,
2599,
2515,
2315,
2250,
2160,
2069,
2029,
1798,
1716,
1673,
1537,
1480,
1430,
1293,
1182,
1209,
1091,
993,
913,
927,
857,
754,
703,
628,
584,
512,
457,
450,
390,
353,
311,
233,
194,
125,
109,
71,
40,
21,
21,
20,
18,
20,
20,
13,
12,
23,
11,
11,
7,
10,
11,
5,
12,
7,
6,
8,
8,
6,
1,
13,
4,
4,
3,
1,
2,
3,
3,
2,
4,
6,
2,
1,
3,
2,
1,
1,
6,
3,
3,
2,
3,
6,
1,
1,
0,
2,
1,
4,
2,
0,
2,
3,
1,
2,
2,
0,
0,
0,
0,
0,
0,
2,
1,
2,
0,
0,
1,
0,
1,
0,
0,
0,
1,
0,
0,
0,
1,
0,
1,
0,
0,
1,
0,
1,
0,
0,
0,
0,
0,
0,
0,
0,
0,
0,
0,
0,
0,
0,
0,
0,
0,
0,
1,
0,
0,
0,
0,
0,
0,
0,
0,
0,
0,
0,
0,
0,
0,
0,
0,
0,
0,
0,
0,
0,
0,
0,
0,
0,
0,
0,
0,
0,
0,
0,
0,
0,
0,
0,
0,
0,
0,
0,
0,
0,
0,
0,
0,
#ENDOFDATA   :