File: N132962/Standards/20 keV/ThF4 std.msa
#FORMAT      : EMSA/MAS Spectral Data File
#VERSION     : 1.0
#TITLE       : ThF4 std
#DATE        : 12-SEP-2025
#TIME        : 11:40
#OWNER       : Unknown
#NPOINTS     : 4096
#NCOLUMNS    : 1
#XUNITS      : eV
#YUNITS      : counts
#DATATYPE    : Y
#XPERCHAN    : 9.99778
#OFFSET      : 1.69135
#BEAMKV      : 20
#SIGNALTYPE  : EDS
#ELEVANGLE   : 35
#AZIMANGLE   : 0
#LIVETIME    : 961.448
#REALTIME    : 1075.79
#PROBECUR    : 1.24145
#TAUWIND     : 0
#TDEADLYR    : 0
#TACTLYR     : 0.045
#TALWIND     : 0.025
#CHOFFSET    : 0.0
#XLABEL      : Energy (eV)
#YLABEL      : Counts
#EDSDET      : SD
##SPECIMEN   : ThF4 std
##D2STDCMP   : ThF4,(F:24.6703),(Th:75.3297)
##DET_HASH   : 12273538-fd48-a23f-0a19-f1e6fa85caef
##CALIB_HASH : 6abaa72c-aa41-8738-0be9-f592914732f3
##WORKING    : 15.0 mm
##SAMPLE     : <BulkSample id="1">\n<mOrientation id="2">\n<double>0.0</double>\n<double>0.0</double>\n<double>-1.0</double>\n</mOrientation>\n</BulkSample>
##MULTISPEC  : 1.78054
##DET_NAME   : EDAX All
##DET_MODE   : MediumLE
#SPECTRUM    :
102,
4539,
166596,
44590,
38666,
198009,
25848,
25779,
30078,
43531,
41801,
38166,
40675,
41778,
37614,
38155,
43295,
67012,
41314,
44454,
44547,
333116,
308780,
160665,
72994,
28351,
24587,
26264,
30305,
28704,
25041,
22269,
25265,
22988,
23357,
22683,
21900,
21301,
21062,
20647,
20607,
20288,
20162,
20325,
19965,
19714,
20686,
18493,
17964,
17803,
17711,
16907,
16672,
17226,
16428,
15806,
15222,
14852,
14559,
14637,
14013,
13822,
13418,
13177,
12759,
12514,
12219,
11993,
11723,
11304,
11128,
10862,
10546,
10330,
9821,
9553,
9423,
9143,
8821,
9312,
8800,
8145,
7741,
7681,
7285,
7033,
6857,
6467,
6444,
6365,
6090,
7056,
13880,
13765,
5703,
5027,
4623,
4634,
4291,
4053,
4030,
3687,
3658,
3536,
3367,
3128,
3097,
3122,
2783,
2697,
2619,
3999,
3574,
2258,
2151,
2100,
2128,
1734,
1550,
1496,
1417,
1345,
1190,
1108,
1166,
1028,
1008,
924,
809,
785,
656,
608,
564,
494,
458,
444,
356,
316,
242,
192,
186,
115,
64,
39,
21,
18,
27,
21,
21,
20,
18,
19,
24,
17,
14,
10,
12,
14,
14,
5,
15,
11,
14,
6,
12,
6,
5,
4,
6,
6,
7,
8,
1,
4,
2,
8,
5,
8,
7,
8,
7,
8,
4,
2,
7,
9,
2,
2,
3,
5,
4,
5,
1,
2,
3,
7,
4,
2,
1,
3,
5,
1,
1,
0,
1,
1,
0,
0,
1,
0,
0,
1,
1,
0,
0,
1,
1,
0,
0,
2,
1,
2,
1,
0,
0,
0,
0,
0,
0,
0,
0,
0,
1,
0,
0,
0,
0,
0,
1,
0,
0,
0,
0,
0,
0,
0,
0,
0,
0,
0,
0,
0,
0,
0,
0,
0,
0,
0,
0,
0,
0,
0,
0,
0,
0,
0,
0,
0,
0,
0,
0,
0,
0,
0,
0,
0,
0,
0,
0,
0,
0,
0,
0,
0,
0,
0,
0,
0,
0,
0,
0,
0,
0,
0,
#ENDOFDATA   :