File: N132962/Standards/20 keV/Ti std.msa
#FORMAT      : EMSA/MAS Spectral Data File
#VERSION     : 1.0
#TITLE       : Ti std
#DATE        : 20-FEB-2025
#TIME        : 16:38
#OWNER       : Unknown
#NPOINTS     : 4096
#NCOLUMNS    : 1
#XUNITS      : eV
#YUNITS      : counts
#DATATYPE    : Y
#XPERCHAN    : 9.99778
#OFFSET      : 1.69135
#BEAMKV      : 20
#SIGNALTYPE  : EDS
#ELEVANGLE   : 35
#AZIMANGLE   : 0
#LIVETIME    : 1198.46
#REALTIME    : 1316.81
#PROBECUR    : 1.04967
#TAUWIND     : 0
#TDEADLYR    : 0
#TACTLYR     : 0.045
#TALWIND     : 0.025
#CHOFFSET    : 0.0
#XLABEL      : Energy (eV)
#YLABEL      : Counts
#EDSDET      : SD
##SPECIMEN   : Ti std
##D2STDCMP   : Ti,(Ti:100.0),5.0
##DET_HASH   : 12273538-fd48-a23f-0a19-f1e6fa85caef
##CALIB_HASH : 6abaa72c-aa41-8738-0be9-f592914732f3
##WORKING    : 15.0 mm
##SAMPLE     : <BulkSample id="1">\n<mOrientation id="2">\n<double>0.0</double>\n<double>0.0</double>\n<double>-1.0</double>\n</mOrientation>\n</BulkSample>
##MULTISPEC  : 1.401
##DET_NAME   : EDAX All
##DET_MODE   : MediumLE
#SPECTRUM    :
145,
1710,
43477,
338719,
19738,
12665,
15389,
17554,
21649,
24793,
27167,
29754,
31784,
32548,
28645,
28649,
27920,
27841,
27046,
28033,
36550,
24721,
23990,
24531,
22348,
21504,
20984,
20697,
20111,
18710,
19083,
37541,
1658311,
197653,
22882,
221907,
40497,
9566,
10144,
9753,
9460,
9280,
9184,
9184,
8796,
9278,
9803,
8456,
8214,
8115,
7927,
7572,
7465,
7736,
7296,
6911,
6632,
6612,
6478,
6195,
5960,
5825,
5810,
5724,
7438,
6803,
5261,
5496,
5454,
4626,
4639,
4558,
4236,
4079,
3966,
3975,
3697,
3506,
3510,
3434,
3146,
3138,
2946,
2861,
2843,
2691,
2587,
2503,
2377,
2249,
2201,
2165,
1975,
1935,
1920,
1698,
1689,
1580,
1487,
1505,
1344,
1278,
1239,
1257,
1137,
1145,
1026,
984,
853,
844,
789,
830,
730,
674,
661,
629,
558,
559,
484,
489,
450,
442,
381,
348,
359,
316,
262,
250,
233,
198,
208,
160,
171,
113,
130,
110,
92,
90,
61,
47,
42,
36,
23,
13,
8,
5,
8,
5,
4,
4,
6,
4,
7,
2,
5,
4,
3,
9,
1,
3,
1,
0,
2,
3,
1,
2,
3,
1,
0,
1,
0,
2,
1,
1,
0,
0,
2,
1,
1,
0,
1,
0,
0,
1,
0,
0,
2,
0,
1,
1,
0,
0,
0,
1,
0,
0,
0,
0,
0,
0,
0,
0,
0,
0,
0,
0,
0,
0,
0,
0,
0,
0,
0,
0,
0,
0,
0,
0,
0,
0,
0,
0,
0,
0,
0,
0,
0,
0,
0,
0,
0,
0,
0,
0,
0,
0,
0,
0,
0,
0,
0,
0,
0,
0,
0,
0,
0,
0,
0,
0,
0,
0,
0,
0,
0,
0,
0,
0,
0,
0,
0,
0,
0,
0,
0,
0,
0,
0,
0,
0,
0,
0,
0,
0,
0,
0,
0,
0,
0,
0,
0,
0,
0,
0,
0,
0,
0,
0,
0,
0,
0,
0,
0,
0,
#ENDOFDATA   :