File: N132962/Standards/20 keV/Tm std.msa
#FORMAT      : EMSA/MAS Spectral Data File
#VERSION     : 1.0
#TITLE       : Tm std
#DATE        : 20-FEB-2025
#TIME        : 13:50
#OWNER       : Unknown
#NPOINTS     : 4096
#NCOLUMNS    : 1
#XUNITS      : eV
#YUNITS      : counts
#DATATYPE    : Y
#XPERCHAN    : 9.99778
#OFFSET      : 1.69135
#BEAMKV      : 20
#SIGNALTYPE  : EDS
#ELEVANGLE   : 35
#AZIMANGLE   : 0
#LIVETIME    : 960.613
#REALTIME    : 1070.12
#PROBECUR    : 1.04692
#TAUWIND     : 0
#TDEADLYR    : 0
#TACTLYR     : 0.045
#TALWIND     : 0.025
#CHOFFSET    : 0.0
#XLABEL      : Energy (eV)
#YLABEL      : Counts
#EDSDET      : SD
##SPECIMEN   : Tm std
##D2STDCMP   : Tm,(Tm:100.0),5.0
##DET_HASH   : 12273538-fd48-a23f-0a19-f1e6fa85caef
##CALIB_HASH : 6abaa72c-aa41-8738-0be9-f592914732f3
##WORKING    : 15.0 mm
##SAMPLE     : <BulkSample id="1">\n<mOrientation id="2">\n<double>0.0</double>\n<double>0.0</double>\n<double>-1.0</double>\n</mOrientation>\n</BulkSample>
##MULTISPEC  : 2.95556
##DET_NAME   : EDAX All
##DET_MODE   : MediumLE
#SPECTRUM    :
125,
2909,
38034,
27002,
40791,
49675,
48993,
52620,
182604,
61344,
181925,
264972,
50328,
28546,
25676,
21452,
23132,
23435,
24346,
25346,
25526,
26632,
26438,
26684,
27182,
26733,
26959,
26774,
26632,
26402,
26473,
25937,
25338,
25293,
24594,
24532,
24363,
24130,
23888,
24416,
22644,
21984,
21898,
21214,
21165,
32253,
27114,
19636,
19446,
19205,
28077,
275271,
88360,
19590,
17516,
16494,
16579,
47712,
135884,
39627,
47930,
40614,
14357,
11793,
11586,
12052,
12672,
27373,
17770,
13914,
15413,
10226,
10163,
9128,
8814,
8622,
8386,
8348,
7960,
7757,
7650,
7592,
7157,
6983,
6793,
6521,
6437,
6171,
5937,
5780,
5677,
5247,
5167,
5125,
4826,
4674,
4526,
4374,
4245,
3934,
3853,
3688,
3577,
3541,
3183,
3101,
2964,
2893,
2771,
2678,
2553,
2265,
2270,
2226,
2055,
1914,
1856,
1667,
1682,
1531,
1394,
1415,
1269,
1230,
1185,
1050,
988,
942,
878,
807,
754,
721,
592,
593,
501,
443,
409,
341,
265,
230,
167,
131,
86,
36,
27,
33,
23,
25,
20,
27,
25,
20,
19,
21,
23,
21,
20,
20,
19,
22,
16,
12,
13,
14,
12,
11,
9,
12,
17,
8,
9,
16,
12,
8,
9,
7,
7,
6,
5,
10,
12,
9,
12,
10,
5,
8,
2,
8,
9,
0,
4,
5,
2,
3,
1,
4,
4,
2,
1,
2,
7,
1,
3,
0,
2,
0,
1,
1,
3,
2,
3,
0,
1,
0,
3,
0,
1,
0,
0,
1,
0,
0,
1,
1,
1,
1,
1,
0,
0,
0,
0,
0,
0,
1,
0,
1,
0,
1,
0,
1,
0,
0,
1,
0,
0,
0,
0,
0,
0,
0,
0,
0,
0,
0,
0,
0,
0,
0,
0,
0,
0,
0,
1,
0,
0,
0,
0,
0,
0,
0,
0,
0,
0,
0,
0,
0,
0,
0,
0,
0,
0,
0,
0,
0,
0,
0,
0,
0,
0,
0,
0,
0,
0,
0,
#ENDOFDATA   :