File: N132962/Standards/20 keV/V std.msa
#FORMAT      : EMSA/MAS Spectral Data File
#VERSION     : 1.0
#TITLE       : V std
#DATE        : 20-FEB-2025
#TIME        : 16:44
#OWNER       : Unknown
#NPOINTS     : 4096
#NCOLUMNS    : 1
#XUNITS      : eV
#YUNITS      : counts
#DATATYPE    : Y
#XPERCHAN    : 9.99778
#OFFSET      : 1.69135
#BEAMKV      : 20
#SIGNALTYPE  : EDS
#ELEVANGLE   : 35
#AZIMANGLE   : 0
#LIVETIME    : 959.57
#REALTIME    : 1052.52
#PROBECUR    : 1.04967
#TAUWIND     : 0
#TDEADLYR    : 0
#TACTLYR     : 0.045
#TALWIND     : 0.025
#CHOFFSET    : 0.0
#XLABEL      : Energy (eV)
#YLABEL      : Counts
#EDSDET      : SD
##SPECIMEN   : V std
##D2STDCMP   : V,(V:100.0)
##DET_HASH   : 12273538-fd48-a23f-0a19-f1e6fa85caef
##CALIB_HASH : 6abaa72c-aa41-8738-0be9-f592914732f3
##WORKING    : 15.0 mm
##SAMPLE     : <BulkSample id="1">\n<mOrientation id="2">\n<double>0.0</double>\n<double>0.0</double>\n<double>-1.0</double>\n</mOrientation>\n</BulkSample>
##MULTISPEC  : 1.20227
##DET_NAME   : EDAX All
##DET_MODE   : MediumLE
#SPECTRUM    :
101,
1451,
30435,
272436,
51985,
9375,
11455,
13238,
16228,
18799,
20565,
22583,
24576,
24945,
22413,
22780,
22510,
22054,
21694,
21096,
20280,
19695,
20071,
27167,
18086,
17567,
17425,
16632,
16092,
15732,
15708,
15197,
14229,
14475,
21913,
874490,
324791,
14137,
44012,
152520,
8850,
7319,
7820,
7261,
7279,
7509,
7952,
6855,
6864,
6591,
6504,
6300,
6099,
6493,
5930,
5702,
5445,
5393,
5302,
5219,
5053,
4953,
4836,
4698,
4516,
4347,
4225,
4119,
4084,
3900,
4595,
6146,
3814,
3539,
4044,
3387,
3138,
3076,
3097,
2837,
2702,
2635,
2573,
2371,
2383,
2296,
2265,
2061,
2024,
1894,
1893,
1816,
1627,
1628,
1551,
1546,
1360,
1348,
1342,
1222,
1213,
1111,
1047,
1055,
948,
912,
904,
819,
796,
724,
766,
708,
684,
552,
566,
533,
498,
408,
450,
386,
358,
379,
298,
290,
250,
259,
251,
229,
238,
196,
174,
146,
134,
130,
99,
93,
85,
83,
58,
54,
33,
15,
14,
4,
6,
8,
6,
2,
3,
8,
3,
2,
3,
2,
2,
3,
6,
2,
5,
4,
0,
3,
0,
3,
3,
0,
2,
3,
0,
1,
1,
2,
0,
1,
0,
0,
1,
1,
1,
1,
0,
0,
0,
0,
1,
0,
0,
0,
0,
0,
0,
2,
1,
1,
0,
1,
0,
0,
1,
0,
0,
0,
0,
0,
0,
0,
0,
0,
0,
1,
0,
0,
1,
0,
1,
0,
0,
0,
0,
0,
1,
0,
0,
0,
0,
0,
0,
0,
0,
0,
0,
0,
0,
0,
0,
0,
0,
0,
0,
0,
0,
0,
0,
0,
0,
0,
0,
0,
0,
0,
0,
0,
0,
0,
0,
0,
0,
0,
0,
0,
0,
0,
0,
0,
0,
0,
0,
0,
0,
0,
0,
0,
0,
0,
0,
0,
0,
0,
0,
0,
0,
0,
0,
0,
0,
0,
0,
0,
0,
0,
0,
0,
0,
0,
#ENDOFDATA   :