File: N132962/Standards/20 keV/W std.msa
#FORMAT      : EMSA/MAS Spectral Data File
#VERSION     : 1.0
#TITLE       : W std
#DATE        : 20-FEB-2025
#TIME        : 17:08
#OWNER       : Unknown
#NPOINTS     : 4096
#NCOLUMNS    : 1
#XUNITS      : eV
#YUNITS      : counts
#DATATYPE    : Y
#XPERCHAN    : 9.99778
#OFFSET      : 1.69135
#BEAMKV      : 20
#SIGNALTYPE  : EDS
#ELEVANGLE   : 35
#AZIMANGLE   : 0
#LIVETIME    : 1188.81
#REALTIME    : 1350.53
#PROBECUR    : 1.04992
#TAUWIND     : 0
#TDEADLYR    : 0
#TACTLYR     : 0.045
#TALWIND     : 0.025
#CHOFFSET    : 0.0
#XLABEL      : Energy (eV)
#YLABEL      : Counts
#EDSDET      : SD
##SPECIMEN   : W std
##D2STDCMP   : W,(W:100.0),5.0
##DET_HASH   : 12273538-fd48-a23f-0a19-f1e6fa85caef
##CALIB_HASH : 6abaa72c-aa41-8738-0be9-f592914732f3
##WORKING    : 15.0 mm
##SAMPLE     : <BulkSample id="1">\n<mOrientation id="2">\n<double>0.0</double>\n<double>0.0</double>\n<double>-1.0</double>\n</mOrientation>\n</BulkSample>
##MULTISPEC  : 1.27787
##DET_NAME   : EDAX All
##DET_MODE   : MediumLE
#SPECTRUM    :
136,
3374,
47740,
27873,
39103,
44015,
49688,
54834,
59868,
66360,
171900,
72714,
176059,
1479363,
39857,
35758,
31364,
31798,
27764,
27750,
28673,
28737,
29311,
30156,
30232,
32962,
34219,
30977,
30907,
30991,
30936,
30797,
30299,
30123,
29557,
29695,
29412,
28795,
28974,
29392,
27765,
27136,
27291,
26342,
25378,
27210,
30717,
24292,
23690,
23074,
23478,
22709,
24889,
32477,
21844,
20676,
20083,
19877,
20291,
60698,
252953,
37520,
19710,
17903,
16441,
16002,
15825,
16672,
34438,
100226,
42952,
57138,
23766,
15187,
11932,
11257,
11090,
10731,
11021,
10710,
17830,
19199,
11167,
13000,
10032,
8506,
8627,
7766,
7474,
7276,
7066,
6865,
6626,
6273,
6102,
5849,
5675,
5438,
5308,
5108,
4826,
4692,
4540,
4246,
4223,
3917,
3810,
3562,
3404,
3362,
3246,
2967,
2879,
2728,
2573,
2469,
2288,
2263,
2104,
1967,
1970,
1805,
1690,
1652,
1468,
1417,
1258,
1220,
1187,
1119,
1003,
836,
809,
749,
664,
532,
565,
464,
375,
324,
304,
193,
121,
78,
40,
45,
33,
42,
40,
40,
29,
39,
23,
23,
22,
26,
20,
23,
21,
18,
19,
19,
24,
14,
25,
12,
13,
16,
10,
11,
14,
9,
13,
15,
6,
12,
8,
11,
12,
16,
15,
10,
9,
11,
17,
9,
9,
7,
5,
8,
7,
4,
4,
8,
6,
4,
4,
5,
5,
2,
1,
4,
4,
1,
4,
4,
0,
2,
1,
1,
1,
1,
6,
1,
2,
1,
2,
1,
2,
0,
0,
0,
1,
0,
1,
1,
0,
1,
0,
1,
1,
2,
0,
1,
0,
0,
0,
0,
0,
0,
0,
1,
0,
0,
0,
0,
0,
0,
0,
0,
1,
0,
0,
0,
0,
0,
0,
0,
0,
0,
0,
0,
0,
0,
0,
0,
0,
0,
0,
0,
0,
0,
0,
1,
0,
0,
0,
0,
0,
1,
0,
0,
0,
0,
0,
0,
0,
0,
0,
0,
0,
0,
0,
0,
#ENDOFDATA   :