File: N132962/Standards/20 keV/Y std.msa
#FORMAT      : EMSA/MAS Spectral Data File
#VERSION     : 1.0
#TITLE       : G588 Y[0][all]+G588 Y[1][all]+G588 Y[2][all]+G588 Y[3][all]+G588 Y[4][all]
#NPOINTS     : 4096
#NCOLUMNS    : 1
#XUNITS      : eV
#YUNITS      : counts
#DATATYPE    : Y
#SIGNALTYPE  : EDS
#XLABEL      : Energy (eV)
#YLABEL      : Counts
#XPERCHAN -eV: 9.99778
#OFFSET   -eV: 1.69135
#CHOFFSET    : 0
#OWNER       : Unknown
#ELEVANGLE   : 35
#BEAMKV   -kV: 20
#LIVETIME  -s: 1199.75
#REALTIME  -s: 1334.55
#PROBECUR -nA: 0.83562
##WORKING -mm: 15
##D2STDCMP   : Y,(Y:100.0000)
#SPECTRUM    :
136,
17878,
48243,
18774,
41113,
44885,
37238,
41559,
46575,
51395,
55529,
59300,
159555,
209443,
1755774,
142933,
21179,
24520,
19509,
20315,
20926,
21774,
21948,
22740,
22471,
22783,
23572,
25090,
28152,
22643,
21530,
21352,
21262,
20901,
20469,
20213,
19748,
19118,
18949,
18914,
18217,
17759,
17426,
17032,
16422,
16725,
18164,
15465,
14977,
14473,
14466,
14182,
13396,
13837,
13145,
12363,
12006,
11669,
11960,
11272,
10803,
10534,
10341,
9974,
9653,
9224,
9388,
8830,
8749,
8727,
8093,
8101,
7809,
7436,
7401,
7089,
6840,
6684,
6410,
6380,
6166,
5730,
5475,
5344,
5233,
5094,
4721,
4631,
4370,
4215,
4143,
4093,
3838,
3757,
3562,
3400,
3194,
3026,
2984,
2830,
2768,
2563,
2508,
2384,
2236,
2965,
10692,
11747,
3044,
1808,
1696,
1529,
1532,
1426,
1409,
1244,
1207,
1119,
1218,
2402,
2051,
1142,
865,
710,
701,
637,
580,
531,
487,
485,
414,
366,
354,
297,
301,
264,
193,
183,
148,
117,
93,
57,
42,
15,
19,
12,
10,
6,
15,
6,
6,
9,
7,
7,
9,
5,
2,
5,
5,
7,
5,
2,
8,
4,
6,
3,
1,
2,
4,
1,
3,
3,
1,
1,
1,
0,
4,
1,
1,
0,
2,
3,
0,
0,
6,
1,
0,
3,
2,
1,
1,
1,
3,
2,
1,
1,
1,
0,
5,
0,
1,
2,
2,
0,
1,
1,
1,
0,
1,
0,
1,
1,
1,
0,
1,
1,
0,
0,
0,
0,
0,
0,
2,
0,
0,
0,
0,
0,
0,
0,
0,
0,
0,
0,
0,
0,
0,
0,
0,
0,
0,
0,
0,
0,
0,
0,
0,
0,
0,
0,
0,
0,
0,
0,
0,
0,
0,
0,
0,
0,
0,
0,
0,
0,
0,
0,
0,
0,
0,
0,
0,
0,
0,
0,
0,
0,
0,
0,
0,
0,
0,
0,
0,
0,
0,
0,
0,
0,
0,
0,
0,
0,
0,
0,
#ENDOFDATA   :