File: N132962/Standards/20 keV/Zn std.msa
#FORMAT      : EMSA/MAS Spectral Data File
#VERSION     : 1.0
#TITLE       : Zn std
#DATE        : 21-FEB-2025
#TIME        : 09:27
#OWNER       : Unknown
#NPOINTS     : 4096
#NCOLUMNS    : 1
#XUNITS      : eV
#YUNITS      : counts
#DATATYPE    : Y
#XPERCHAN    : 9.99778
#OFFSET      : 1.69135
#BEAMKV      : 20
#SIGNALTYPE  : EDS
#ELEVANGLE   : 35
#AZIMANGLE   : 0
#LIVETIME    : 958.995
#REALTIME    : 1074.96
#PROBECUR    : 1.05789
#TAUWIND     : 0
#TDEADLYR    : 0
#TACTLYR     : 0.045
#TALWIND     : 0.025
#CHOFFSET    : 0.0
#XLABEL      : Energy (eV)
#YLABEL      : Counts
#EDSDET      : SD
##SPECIMEN   : Zn std
##D2STDCMP   : Zn,(Zn:100.0)
##DET_HASH   : 12273538-fd48-a23f-0a19-f1e6fa85caef
##CALIB_HASH : 6abaa72c-aa41-8738-0be9-f592914732f3
##WORKING    : 15.0 mm
##SAMPLE     : <BulkSample id="1">\n<mOrientation id="2">\n<double>0.0</double>\n<double>0.0</double>\n<double>-1.0</double>\n</mOrientation>\n</BulkSample>
##MULTISPEC  : 2.37943
##DET_NAME   : EDAX All
##DET_MODE   : MediumLE
#SPECTRUM    :
111,
1512,
36469,
21120,
35481,
45497,
138378,
1725323,
36624,
12475,
14109,
16243,
18624,
20562,
22477,
21475,
20008,
20183,
20696,
21469,
20669,
20426,
20148,
20088,
19751,
19219,
19204,
18553,
18022,
17558,
17397,
16722,
16110,
15812,
15248,
14813,
14401,
14185,
13765,
13635,
12634,
12510,
12200,
11734,
11356,
11940,
12859,
10478,
10037,
10730,
10050,
9481,
9061,
9447,
8721,
8638,
8462,
8013,
7979,
8165,
9975,
167989,
283023,
12924,
6751,
6535,
6775,
8430,
47280,
28239,
5087,
4659,
4502,
4376,
4310,
4314,
4201,
3893,
3762,
3782,
3563,
3464,
3327,
3179,
3170,
2968,
2946,
2767,
2728,
2604,
2561,
2430,
2363,
2284,
2113,
2070,
1911,
1919,
1765,
1788,
1571,
1565,
1453,
1445,
1346,
1250,
1184,
1146,
1116,
1092,
1017,
912,
934,
847,
790,
810,
739,
663,
663,
577,
533,
556,
513,
683,
601,
364,
352,
338,
323,
300,
300,
257,
226,
190,
166,
142,
117,
115,
100,
67,
59,
43,
23,
13,
10,
9,
12,
8,
7,
8,
6,
6,
4,
2,
4,
8,
5,
4,
5,
9,
9,
3,
4,
5,
4,
4,
4,
2,
2,
2,
5,
0,
4,
3,
1,
2,
5,
2,
3,
2,
3,
0,
5,
1,
1,
2,
2,
1,
1,
2,
1,
0,
0,
2,
0,
0,
1,
1,
1,
1,
1,
1,
0,
0,
0,
0,
1,
1,
0,
0,
1,
1,
0,
0,
1,
1,
0,
0,
0,
0,
0,
0,
0,
0,
0,
0,
0,
0,
0,
0,
0,
0,
0,
0,
0,
1,
0,
0,
0,
0,
0,
0,
0,
0,
0,
0,
0,
0,
0,
0,
0,
0,
0,
0,
0,
0,
0,
0,
0,
0,
0,
0,
0,
0,
0,
0,
0,
0,
0,
0,
0,
0,
0,
0,
0,
0,
0,
0,
0,
0,
0,
0,
0,
0,
0,
0,
0,
0,
0,
0,
0,
0,
0,
0,
#ENDOFDATA   :