File: N132962/Standards/20 keV/ZnS std.msa
#FORMAT      : EMSA/MAS Spectral Data File
#VERSION     : 1.0
#TITLE       : ZnS std
#DATE        : 19-MAR-2025
#TIME        : 19:42
#OWNER       : Unknown
#NPOINTS     : 4096
#NCOLUMNS    : 1
#XUNITS      : eV
#YUNITS      : counts
#DATATYPE    : Y
#XPERCHAN    : 9.99778
#OFFSET      : 1.69135
#BEAMKV      : 20
#SIGNALTYPE  : EDS
#ELEVANGLE   : 35
#AZIMANGLE   : 0
#LIVETIME    : 1918.45
#REALTIME    : 2111.09
#PROBECUR    : 1.03407
#TAUWIND     : 0
#TDEADLYR    : 0
#TACTLYR     : 0.045
#TALWIND     : 0.025
#CHOFFSET    : 0.0
#XLABEL      : Energy (eV)
#YLABEL      : Counts
#EDSDET      : SD
##SPECIMEN   : ZnS std
##D2STDCMP   : ZnS,(S:32.896),(Zn:67.104)
##DET_HASH   : 12273538-fd48-a23f-0a19-f1e6fa85caef
##CALIB_HASH : 6abaa72c-aa41-8738-0be9-f592914732f3
##WORKING    : 15.0 mm
##SAMPLE     : <BulkSample id="1">\n<mOrientation id="2">\n<double>0.0</double>\n<double>0.0</double>\n<double>-1.0</double>\n</mOrientation>\n</BulkSample>
##MULTISPEC  : 1.03951
##DET_NAME   : EDAX All
##DET_MODE   : MediumLE
#SPECTRUM    :
194,
3367,
54524,
26850,
76115,
64378,
167629,
1914228,
62231,
27612,
32057,
36084,
39798,
42716,
42244,
44720,
453803,
360550,
80846,
29913,
30221,
30388,
30543,
31527,
35075,
29863,
28503,
27939,
27540,
27136,
26220,
25807,
25300,
26372,
23966,
23139,
22418,
21958,
21444,
20695,
20120,
19496,
19126,
18613,
17801,
17943,
18386,
16691,
16104,
16426,
15317,
14775,
14239,
14844,
13907,
13215,
12858,
12652,
12473,
12591,
14153,
204521,
348066,
17778,
10315,
9881,
9921,
12173,
58554,
34994,
8116,
7465,
7032,
7001,
6918,
6729,
6756,
6419,
6833,
6212,
5775,
5359,
5165,
4983,
4775,
4785,
4507,
4381,
4237,
3983,
3769,
3719,
3525,
3431,
3371,
3188,
2971,
2872,
2743,
2673,
2464,
2433,
2294,
2174,
2081,
1924,
1841,
1690,
1708,
1575,
1443,
1408,
1317,
1272,
1218,
1181,
1051,
956,
951,
935,
802,
765,
698,
862,
697,
543,
520,
464,
447,
428,
416,
343,
268,
257,
256,
189,
173,
148,
123,
115,
80,
43,
36,
14,
6,
13,
11,
8,
8,
15,
12,
8,
6,
7,
7,
6,
8,
6,
6,
8,
12,
4,
9,
4,
1,
6,
3,
4,
6,
1,
5,
4,
3,
3,
5,
5,
4,
5,
5,
4,
3,
5,
2,
0,
1,
1,
0,
4,
3,
2,
2,
1,
1,
1,
0,
2,
1,
1,
1,
1,
1,
0,
0,
0,
0,
0,
0,
0,
0,
0,
0,
0,
0,
0,
0,
0,
0,
0,
0,
0,
0,
0,
0,
0,
0,
0,
0,
0,
0,
0,
0,
0,
0,
0,
0,
0,
0,
0,
0,
0,
0,
0,
0,
0,
0,
0,
0,
0,
0,
0,
0,
0,
0,
0,
0,
0,
0,
0,
0,
0,
0,
0,
0,
0,
0,
0,
0,
0,
0,
0,
0,
0,
0,
0,
0,
0,
0,
0,
0,
0,
0,
0,
0,
0,
0,
0,
0,
0,
0,
0,
0,
0,
0,
0,
#ENDOFDATA   :