File: N132962/Standards/20 keV/Zr std.msa
#FORMAT      : EMSA/MAS Spectral Data File
#VERSION     : 1.0
#TITLE       : G588 Zr[0][all]+G588 Zr[1][all]+G588 Zr[2][all]+G588 Zr[3][all]+G588 Zr[4][all]
#NPOINTS     : 4096
#NCOLUMNS    : 1
#XUNITS      : eV
#YUNITS      : counts
#DATATYPE    : Y
#SIGNALTYPE  : EDS
#XLABEL      : Energy (eV)
#YLABEL      : Counts
#XPERCHAN -eV: 9.99778
#OFFSET   -eV: 1.69135
#CHOFFSET    : 0
#OWNER       : Unknown
#ELEVANGLE   : 35
#BEAMKV   -kV: 20
#LIVETIME  -s: 1196.38
#REALTIME  -s: 1330.81
#PROBECUR -nA: 0.83562
##WORKING -mm: 15
##D2STDCMP   : Zr,(Zr:100.0000),5.000
#SPECTRUM    :
155,
34979,
72262,
24702,
30364,
32477,
35522,
40106,
45454,
49369,
52933,
56479,
60505,
141061,
352759,
1334694,
133739,
22151,
27425,
19218,
19941,
20951,
21345,
21534,
22228,
22363,
22580,
22533,
22556,
26343,
25958,
21943,
21076,
20835,
20598,
20067,
19737,
19400,
19237,
19326,
18174,
17854,
17721,
17098,
16667,
17325,
19443,
15679,
15032,
14913,
14917,
14082,
13648,
14353,
13387,
12523,
12269,
12096,
11758,
11372,
11178,
10639,
10531,
10248,
9889,
9624,
9410,
9277,
8936,
8765,
8472,
8164,
7789,
7558,
7569,
7245,
7117,
6838,
6555,
6386,
6143,
5924,
5924,
5525,
5355,
5192,
5070,
4785,
4515,
4486,
4364,
4083,
3971,
3785,
3577,
3457,
3341,
3298,
3032,
2874,
2765,
2687,
2555,
2438,
2267,
2220,
2138,
1942,
1933,
1842,
1738,
2376,
5957,
4645,
1647,
1243,
1222,
1142,
995,
964,
975,
919,
820,
813,
776,
871,
1395,
840,
667,
479,
447,
391,
350,
315,
312,
244,
234,
159,
141,
109,
83,
70,
35,
16,
13,
16,
9,
13,
9,
6,
4,
10,
10,
5,
7,
8,
5,
5,
3,
10,
1,
5,
6,
3,
2,
2,
2,
5,
3,
2,
6,
2,
1,
6,
0,
2,
3,
2,
0,
2,
7,
3,
4,
4,
2,
5,
2,
1,
0,
1,
0,
2,
3,
0,
2,
0,
2,
1,
3,
2,
0,
2,
0,
0,
0,
1,
1,
0,
1,
0,
0,
3,
0,
0,
0,
0,
1,
1,
0,
1,
1,
0,
0,
1,
0,
0,
0,
0,
0,
0,
1,
0,
0,
0,
0,
0,
1,
0,
0,
0,
0,
0,
0,
0,
0,
0,
0,
0,
0,
0,
0,
1,
0,
0,
0,
0,
0,
0,
0,
0,
0,
0,
0,
0,
0,
0,
0,
0,
0,
0,
0,
0,
0,
0,
0,
0,
0,
1,
0,
0,
0,
0,
0,
0,
0,
0,
0,
0,
0,
0,
0,
0,
0,
0,
#ENDOFDATA   :